title:2o5c2o5c2o, recorded:31.08.17 17.44.19, timestamp started:2017-08-31T17:41:20.077227-03:00            , sampling:128, subject:iv1, labels:COUNTER INTERPOLATED AF3 F7 F3 FC5 T7 P7 O1 O2 P8 T8 FC6 F4 F8 AF4 RAW_CQ GYROX GYROY MARKER MARKER_HARDWARE SYNC TIME_STAMP_s TIME_STAMP_ms CQ_AF3 CQ_F7 CQ_F3 CQ_FC5 CQ_T7 CQ_P7 CQ_O1 CQ_O2 CQ_P8 CQ_T8 CQ_FC6 CQ_F4 CQ_F8 CQ_AF4 CQ_CMS CQ_DRL, chan:40, samples:2168, units:emotiv
77.0000000000000000000000000, 0.0000000000000000000000000, 4188.2050781250000000000000000, 4194.8715820312500000000000000, 4187.6923828125000000000000000, 4219.4873046875000000000000000, 4178.9741210937500000000000000, 4180.5126953125000000000000000, 4178.4614257812500000000000000, 4187.6923828125000000000000000, 4222.0512695312500000000000000, 4198.4614257812500000000000000, 4187.6923828125000000000000000, 4210.2563476562500000000000000, 4189.2304687500000000000000000, 4194.8715820312500000000000000, 829.0000000000000000000000000, 2039.0000000000000000000000000, 2028.0000000000000000000000000, 0.0000000000000000000000000, 0.0000000000000000000000000, 0.0000000000000000000000000, 179.0000000000000000000000000, 218.4615325927734375000000000, 4.0000000000000000000000000, 4.0000000000000000000000000, 4.0000000000000000000000000, 4.0000000000000000000000000, 4.0000000000000000000000000, 4.0000000000000000000000000, 4.0000000000000000000000000, 4.0000000000000000000000000, 4.0000000000000000000000000, 4.0000000000000000000000000, 4.0000000000000000000000000, 4.0000000000000000000000000, 4.0000000000000000000000000, 4.0000000000000000000000000, 4.0000000000000000000000000, 4.0000000000000000000000000
78.0000000000000000000000000, 0.0000000000000000000000000, 4194.8715820312500000000000000, 4201.5385742187500000000000000, 4191.7949218750000000000000000, 4215.3842773437500000000000000, 4190.7690429687500000000000000, 4183.5898437500000000000000000, 4183.0766601562500000000000000, 4202.5639648437500000000000000, 4211.2817382812500000000000000, 4201.5385742187500000000000000, 4196.9228515625000000000000000, 4203.5898437500000000000000000, 4198.9741210937500000000000000, 4201.5385742187500000000000000, 869.0000000000000000000000000, 2039.0000000000000000000000000, 2029.0000000000000000000000000, 0.0000000000000000000000000, 0.0000000000000000000000000, 0.0000000000000000000000000, 179.0000000000000000000000000, 226.1538391113281250000000000, 4.0000000000000000000000000, 4.0000000000000000000000000, 4.0000000000000000000000000, 4.0000000000000000000000000, 4.0000000000000000000000000, 4.0000000000000000000000000, 4.0000000000000000000000000, 4.0000000000000000000000000, 4.0000000000000000000000000, 4.0000000000000000000000000, 4.0000000000000000000000000, 4.0000000000000000000000000, 4.0000000000000000000000000, 4.0000000000000000000000000, 4.0000000000000000000000000, 4.0000000000000000000000000
79.0000000000000000000000000, 0.0000000000000000000000000, 4186.6665039062500000000000000, 4196.9228515625000000000000000, 4185.6411132812500000000000000, 4212.3076171875000000000000000, 4189.2304687500000000000000000, 4179.4873046875000000000000000, 4184.6152343750000000000000000, 4200.0000000000000000000000000, 4211.7949218750000000000000000, 4194.8715820312500000000000000, 4189.2304687500000000000000000, 4213.3330078125000000000000000, 4196.4101562500000000000000000, 4190.7690429687500000000000000, 861.0000000000000000000000000, 2038.0000000000000000000000000, 2028.0000000000000000000000000, 0.0000000000000000000000000, 0.0000000000000000000000000, 0.0000000000000000000000000, 179.0000000000000000000000000, 234.3589630126953125000000000, 4.0000000000000000000000000, 4.0000000000000000000000000, 4.0000000000000000000000000, 4.0000000000000000000000000, 4.0000000000000000000000000, 4.0000000000000000000000000, 4.0000000000000000000000000, 4.0000000000000000000000000, 4.0000000000000000000000000, 4.0000000000000000000000000, 4.0000000000000000000000000, 4.0000000000000000000000000, 4.0000000000000000000000000, 4.0000000000000000000000000, 4.0000000000000000000000000, 4.0000000000000000000000000
80.0000000000000000000000000, 0.0000000000000000000000000, 4176.4101562500000000000000000, 4181.5385742187500000000000000, 4177.4360351562500000000000000, 4219.4873046875000000000000000, 4175.3842773437500000000000000, 4175.8974609375000000000000000, 4180.5126953125000000000000000, 4186.1538085937500000000000000, 4220.5126953125000000000000000, 4187.6923828125000000000000000, 4174.8715820312500000000000000, 4224.6152343750000000000000000, 4183.0766601562500000000000000, 4178.9741210937500000000000000, 853.0000000000000000000000000, 2038.0000000000000000000000000, 2031.0000000000000000000000000, 0.0000000000000000000000000, 0.0000000000000000000000000, 0.0000000000000000000000000, 179.0000000000000000000000000, 242.0512695312500000000000000, 4.0000000000000000000000000, 4.0000000000000000000000000, 4.0000000000000000000000000, 4.0000000000000000000000000, 4.0000000000000000000000000, 4.0000000000000000000000000, 4.0000000000000000000000000, 4.0000000000000000000000000, 4.0000000000000000000000000, 4.0000000000000000000000000, 4.0000000000000000000000000, 4.0000000000000000000000000, 4.0000000000000000000000000, 4.0000000000000000000000000, 4.0000000000000000000000000, 4.0000000000000000000000000
81.0000000000000000000000000, 0.0000000000000000000000000, 4166.6665039062500000000000000, 4174.3588867187500000000000000, 4166.1538085937500000000000000, 4229.2304687500000000000000000, 4177.4360351562500000000000000, 4174.3588867187500000000000000, 4181.5385742187500000000000000, 4184.6152343750000000000000000, 4224.1025390625000000000000000, 4188.7177734375000000000000000, 4169.2304687500000000000000000, 4231.7949218750000000000000000, 4178.4614257812500000000000000, 4172.3076171875000000000000000, 829.0000000000000000000000000, 2038.0000000000000000000000000, 2030.0000000000000000000000000, 0.0000000000000000000000000, 0.0000000000000000000000000, 0.0000000000000000000000000, 179.0000000000000000000000000, 250.2564086914062500000000000, 4.0000000000000000000000000, 4.0000000000000000000000000, 4.0000000000000000000000000, 4.0000000000000000000000000, 4.0000000000000000000000000, 4.0000000000000000000000000, 4.0000000000000000000000000, 4.0000000000000000000000000, 4.0000000000000000000000000, 4.0000000000000000000000000, 4.0000000000000000000000000, 4.0000000000000000000000000, 4.0000000000000000000000000, 4.0000000000000000000000000, 4.0000000000000000000000000, 4.0000000000000000000000000
82.0000000000000000000000000, 0.0000000000000000000000000, 4170.2563476562500000000000000, 4181.0253906250000000000000000, 4178.4614257812500000000000000, 4222.0512695312500000000000000, 4185.1279296875000000000000000, 4180.0000000000000000000000000, 4192.8203125000000000000000000, 4190.7690429687500000000000000, 4223.5898437500000000000000000, 4194.3588867187500000000000000, 4177.9487304687500000000000000, 4219.4873046875000000000000000, 4183.0766601562500000000000000, 4178.9741210937500000000000000, 869.0000000000000000000000000, 2038.0000000000000000000000000, 2030.0000000000000000000000000, 0.0000000000000000000000000, 0.0000000000000000000000000, 0.0000000000000000000000000, 179.0000000000000000000000000, 257.9486999511718750000000000, 4.0000000000000000000000000, 4.0000000000000000000000000, 4.0000000000000000000000000, 4.0000000000000000000000000, 4.0000000000000000000000000, 4.0000000000000000000000000, 4.0000000000000000000000000, 4.0000000000000000000000000, 4.0000000000000000000000000, 4.0000000000000000000000000, 4.0000000000000000000000000, 4.0000000000000000000000000, 4.0000000000000000000000000, 4.0000000000000000000000000, 4.0000000000000000000000000, 4.0000000000000000000000000
83.0000000000000000000000000, 0.0000000000000000000000000, 4184.6152343750000000000000000, 4188.7177734375000000000000000, 4185.1279296875000000000000000, 4214.3588867187500000000000000, 4188.7177734375000000000000000, 4181.5385742187500000000000000, 4191.7949218750000000000000000, 4193.3330078125000000000000000, 4214.3588867187500000000000000, 4202.0512695312500000000000000, 4191.7949218750000000000000000, 4206.1538085937500000000000000, 4194.8715820312500000000000000, 4194.3588867187500000000000000, 861.0000000000000000000000000, 2040.0000000000000000000000000, 2029.0000000000000000000000000, 0.0000000000000000000000000, 0.0000000000000000000000000, 0.0000000000000000000000000, 179.0000000000000000000000000, 266.1538391113281250000000000, 4.0000000000000000000000000, 4.0000000000000000000000000, 4.0000000000000000000000000, 4.0000000000000000000000000, 4.0000000000000000000000000, 4.0000000000000000000000000, 4.0000000000000000000000000, 4.0000000000000000000000000, 4.0000000000000000000000000, 4.0000000000000000000000000, 4.0000000000000000000000000, 4.0000000000000000000000000, 4.0000000000000000000000000, 4.0000000000000000000000000, 4.0000000000000000000000000, 4.0000000000000000000000000
84.0000000000000000000000000, 0.0000000000000000000000000, 4184.6152343750000000000000000, 4181.0253906250000000000000000, 4183.0766601562500000000000000, 4223.5898437500000000000000000, 4185.1279296875000000000000000, 4179.4873046875000000000000000, 4186.6665039062500000000000000, 4193.3330078125000000000000000, 4212.3076171875000000000000000, 4202.5639648437500000000000000, 4189.7436523437500000000000000, 4209.2304687500000000000000000, 4197.9487304687500000000000000, 4194.8715820312500000000000000, 853.0000000000000000000000000, 2038.0000000000000000000000000, 2031.0000000000000000000000000, 0.0000000000000000000000000, 0.0000000000000000000000000, 0.0000000000000000000000000, 179.0000000000000000000000000, 273.8461608886718750000000000, 4.0000000000000000000000000, 4.0000000000000000000000000, 4.0000000000000000000000000, 4.0000000000000000000000000, 4.0000000000000000000000000, 4.0000000000000000000000000, 4.0000000000000000000000000, 4.0000000000000000000000000, 4.0000000000000000000000000, 4.0000000000000000000000000, 4.0000000000000000000000000, 4.0000000000000000000000000, 4.0000000000000000000000000, 4.0000000000000000000000000, 4.0000000000000000000000000, 4.0000000000000000000000000
85.0000000000000000000000000, 0.0000000000000000000000000, 4180.0000000000000000000000000, 4178.4614257812500000000000000, 4183.0766601562500000000000000, 4225.1279296875000000000000000, 4181.0253906250000000000000000, 4185.6411132812500000000000000, 4186.6665039062500000000000000, 4200.5126953125000000000000000, 4214.3588867187500000000000000, 4202.0512695312500000000000000, 4184.1025390625000000000000000, 4212.3076171875000000000000000, 4193.3330078125000000000000000, 4190.7690429687500000000000000, 829.0000000000000000000000000, 2039.0000000000000000000000000, 2030.0000000000000000000000000, 0.0000000000000000000000000, 0.0000000000000000000000000, 0.0000000000000000000000000, 179.0000000000000000000000000, 282.0512695312500000000000000, 4.0000000000000000000000000, 4.0000000000000000000000000, 4.0000000000000000000000000, 4.0000000000000000000000000, 4.0000000000000000000000000, 4.0000000000000000000000000, 4.0000000000000000000000000, 4.0000000000000000000000000, 4.0000000000000000000000000, 4.0000000000000000000000000, 4.0000000000000000000000000, 4.0000000000000000000000000, 4.0000000000000000000000000, 4.0000000000000000000000000, 4.0000000000000000000000000, 4.0000000000000000000000000
86.0000000000000000000000000, 0.0000000000000000000000000, 4185.1279296875000000000000000, 4191.2817382812500000000000000, 4183.0766601562500000000000000, 4218.9741210937500000000000000, 4183.0766601562500000000000000, 4192.8203125000000000000000000, 4190.2563476562500000000000000, 4207.1791992187500000000000000, 4206.6665039062500000000000000, 4207.6923828125000000000000000, 4190.7690429687500000000000000, 4207.6923828125000000000000000, 4196.4101562500000000000000000, 4196.4101562500000000000000000, 869.0000000000000000000000000, 2038.0000000000000000000000000, 2030.0000000000000000000000000, 0.0000000000000000000000000, 0.0000000000000000000000000, 0.0000000000000000000000000, 179.0000000000000000000000000, 289.7435913085937500000000000, 4.0000000000000000000000000, 4.0000000000000000000000000, 4.0000000000000000000000000, 4.0000000000000000000000000, 4.0000000000000000000000000, 4.0000000000000000000000000, 4.0000000000000000000000000, 4.0000000000000000000000000, 4.0000000000000000000000000, 4.0000000000000000000000000, 4.0000000000000000000000000, 4.0000000000000000000000000, 4.0000000000000000000000000, 4.0000000000000000000000000, 4.0000000000000000000000000, 4.0000000000000000000000000
87.0000000000000000000000000, 0.0000000000000000000000000, 4191.2817382812500000000000000, 4194.3588867187500000000000000, 4197.4360351562500000000000000, 4217.4360351562500000000000000, 4182.0512695312500000000000000, 4188.7177734375000000000000000, 4188.7177734375000000000000000, 4200.0000000000000000000000000, 4209.2304687500000000000000000, 4204.6152343750000000000000000, 4193.3330078125000000000000000, 4198.9741210937500000000000000, 4198.4614257812500000000000000, 4200.0000000000000000000000000, 861.0000000000000000000000000, 2037.0000000000000000000000000, 2030.0000000000000000000000000, 0.0000000000000000000000000, 0.0000000000000000000000000, 0.0000000000000000000000000, 179.0000000000000000000000000, 297.9486999511718750000000000, 4.0000000000000000000000000, 4.0000000000000000000000000, 4.0000000000000000000000000, 4.0000000000000000000000000, 4.0000000000000000000000000, 4.0000000000000000000000000, 4.0000000000000000000000000, 4.0000000000000000000000000, 4.0000000000000000000000000, 4.0000000000000000000000000, 4.0000000000000000000000000, 4.0000000000000000000000000, 4.0000000000000000000000000, 4.0000000000000000000000000, 4.0000000000000000000000000, 4.0000000000000000000000000
88.0000000000000000000000000, 0.0000000000000000000000000, 4181.0253906250000000000000000, 4186.1538085937500000000000000, 4186.6665039062500000000000000, 4221.0253906250000000000000000, 4179.4873046875000000000000000, 4177.4360351562500000000000000, 4172.3076171875000000000000000, 4187.6923828125000000000000000, 4222.5639648437500000000000000, 4194.8715820312500000000000000, 4181.0253906250000000000000000, 4209.2304687500000000000000000, 4193.3330078125000000000000000, 4189.2304687500000000000000000, 853.0000000000000000000000000, 2037.0000000000000000000000000, 2030.0000000000000000000000000, 0.0000000000000000000000000, 0.0000000000000000000000000, 0.0000000000000000000000000, 179.0000000000000000000000000, 305.6410217285156250000000000, 4.0000000000000000000000000, 4.0000000000000000000000000, 4.0000000000000000000000000, 4.0000000000000000000000000, 4.0000000000000000000000000, 4.0000000000000000000000000, 4.0000000000000000000000000, 4.0000000000000000000000000, 4.0000000000000000000000000, 4.0000000000000000000000000, 4.0000000000000000000000000, 4.0000000000000000000000000, 4.0000000000000000000000000, 4.0000000000000000000000000, 4.0000000000000000000000000, 4.0000000000000000000000000
89.0000000000000000000000000, 0.0000000000000000000000000, 4167.1791992187500000000000000, 4177.9487304687500000000000000, 4166.6665039062500000000000000, 4224.1025390625000000000000000, 4174.8715820312500000000000000, 4174.3588867187500000000000000, 4162.0512695312500000000000000, 4174.3588867187500000000000000, 4234.3588867187500000000000000, 4187.6923828125000000000000000, 4170.2563476562500000000000000, 4226.1538085937500000000000000, 4186.1538085937500000000000000, 4173.3330078125000000000000000, 829.0000000000000000000000000, 2040.0000000000000000000000000, 2029.0000000000000000000000000, 0.0000000000000000000000000, 0.0000000000000000000000000, 0.0000000000000000000000000, 179.0000000000000000000000000, 313.8461608886718750000000000, 4.0000000000000000000000000, 4.0000000000000000000000000, 4.0000000000000000000000000, 4.0000000000000000000000000, 4.0000000000000000000000000, 4.0000000000000000000000000, 4.0000000000000000000000000, 4.0000000000000000000000000, 4.0000000000000000000000000, 4.0000000000000000000000000, 4.0000000000000000000000000, 4.0000000000000000000000000, 4.0000000000000000000000000, 4.0000000000000000000000000, 4.0000000000000000000000000, 4.0000000000000000000000000
90.0000000000000000000000000, 0.0000000000000000000000000, 4171.2817382812500000000000000, 4176.4101562500000000000000000, 4174.3588867187500000000000000, 4222.0512695312500000000000000, 4176.9228515625000000000000000, 4177.4360351562500000000000000, 4165.6411132812500000000000000, 4169.7436523437500000000000000, 4234.8715820312500000000000000, 4186.6665039062500000000000000, 4171.7949218750000000000000000, 4223.5898437500000000000000000, 4182.0512695312500000000000000, 4173.8461914062500000000000000, 869.0000000000000000000000000, 2041.0000000000000000000000000, 2031.0000000000000000000000000, 0.0000000000000000000000000, 0.0000000000000000000000000, 0.0000000000000000000000000, 179.0000000000000000000000000, 321.5384521484375000000000000, 4.0000000000000000000000000, 4.0000000000000000000000000, 4.0000000000000000000000000, 4.0000000000000000000000000, 4.0000000000000000000000000, 4.0000000000000000000000000, 4.0000000000000000000000000, 4.0000000000000000000000000, 4.0000000000000000000000000, 4.0000000000000000000000000, 4.0000000000000000000000000, 4.0000000000000000000000000, 4.0000000000000000000000000, 4.0000000000000000000000000, 4.0000000000000000000000000, 4.0000000000000000000000000
91.0000000000000000000000000, 0.0000000000000000000000000, 4172.3076171875000000000000000, 4177.9487304687500000000000000, 4173.3330078125000000000000000, 4223.0766601562500000000000000, 4185.6411132812500000000000000, 4180.5126953125000000000000000, 4173.3330078125000000000000000, 4180.0000000000000000000000000, 4227.1791992187500000000000000, 4186.1538085937500000000000000, 4167.6923828125000000000000000, 4224.1025390625000000000000000, 4170.2563476562500000000000000, 4173.8461914062500000000000000, 861.0000000000000000000000000, 2039.0000000000000000000000000, 2031.0000000000000000000000000, 0.0000000000000000000000000, 0.0000000000000000000000000, 0.0000000000000000000000000, 179.0000000000000000000000000, 329.7435913085937500000000000, 4.0000000000000000000000000, 4.0000000000000000000000000, 4.0000000000000000000000000, 4.0000000000000000000000000, 4.0000000000000000000000000, 4.0000000000000000000000000, 4.0000000000000000000000000, 4.0000000000000000000000000, 4.0000000000000000000000000, 4.0000000000000000000000000, 4.0000000000000000000000000, 4.0000000000000000000000000, 4.0000000000000000000000000, 4.0000000000000000000000000, 4.0000000000000000000000000, 4.0000000000000000000000000
92.0000000000000000000000000, 0.0000000000000000000000000, 4167.1791992187500000000000000, 4176.9228515625000000000000000, 4173.8461914062500000000000000, 4224.1025390625000000000000000, 4184.1025390625000000000000000, 4182.5639648437500000000000000, 4174.8715820312500000000000000, 4180.0000000000000000000000000, 4227.1791992187500000000000000, 4180.5126953125000000000000000, 4158.9741210937500000000000000, 4228.2050781250000000000000000, 4162.5639648437500000000000000, 4164.6152343750000000000000000, 853.0000000000000000000000000, 2039.0000000000000000000000000, 2031.0000000000000000000000000, 0.0000000000000000000000000, 0.0000000000000000000000000, 0.0000000000000000000000000, 179.0000000000000000000000000, 337.4358825683593750000000000, 4.0000000000000000000000000, 4.0000000000000000000000000, 4.0000000000000000000000000, 4.0000000000000000000000000, 4.0000000000000000000000000, 4.0000000000000000000000000, 4.0000000000000000000000000, 4.0000000000000000000000000, 4.0000000000000000000000000, 4.0000000000000000000000000, 4.0000000000000000000000000, 4.0000000000000000000000000, 4.0000000000000000000000000, 4.0000000000000000000000000, 4.0000000000000000000000000, 4.0000000000000000000000000
93.0000000000000000000000000, 0.0000000000000000000000000, 4167.1791992187500000000000000, 4172.3076171875000000000000000, 4171.7949218750000000000000000, 4226.6665039062500000000000000, 4177.9487304687500000000000000, 4175.3842773437500000000000000, 4166.6665039062500000000000000, 4171.7949218750000000000000000, 4233.8461914062500000000000000, 4182.5639648437500000000000000, 4168.2050781250000000000000000, 4228.7177734375000000000000000, 4180.0000000000000000000000000, 4168.2050781250000000000000000, 829.0000000000000000000000000, 2036.0000000000000000000000000, 2030.0000000000000000000000000, 0.0000000000000000000000000, 0.0000000000000000000000000, 0.0000000000000000000000000, 179.0000000000000000000000000, 345.6410217285156250000000000, 4.0000000000000000000000000, 4.0000000000000000000000000, 4.0000000000000000000000000, 4.0000000000000000000000000, 4.0000000000000000000000000, 4.0000000000000000000000000, 4.0000000000000000000000000, 4.0000000000000000000000000, 4.0000000000000000000000000, 4.0000000000000000000000000, 4.0000000000000000000000000, 4.0000000000000000000000000, 4.0000000000000000000000000, 4.0000000000000000000000000, 4.0000000000000000000000000, 4.0000000000000000000000000
94.0000000000000000000000000, 0.0000000000000000000000000, 4170.7690429687500000000000000, 4171.7949218750000000000000000, 4173.8461914062500000000000000, 4226.6665039062500000000000000, 4181.0253906250000000000000000, 4174.8715820312500000000000000, 4169.2304687500000000000000000, 4175.3842773437500000000000000, 4233.3330078125000000000000000, 4187.1791992187500000000000000, 4179.4873046875000000000000000, 4223.0766601562500000000000000, 4196.9228515625000000000000000, 4182.0512695312500000000000000, 869.0000000000000000000000000, 2037.0000000000000000000000000, 2030.0000000000000000000000000, 0.0000000000000000000000000, 0.0000000000000000000000000, 0.0000000000000000000000000, 179.0000000000000000000000000, 353.3333129882812500000000000, 4.0000000000000000000000000, 4.0000000000000000000000000, 4.0000000000000000000000000, 4.0000000000000000000000000, 4.0000000000000000000000000, 4.0000000000000000000000000, 4.0000000000000000000000000, 4.0000000000000000000000000, 4.0000000000000000000000000, 4.0000000000000000000000000, 4.0000000000000000000000000, 4.0000000000000000000000000, 4.0000000000000000000000000, 4.0000000000000000000000000, 4.0000000000000000000000000, 4.0000000000000000000000000
95.0000000000000000000000000, 0.0000000000000000000000000, 4182.5639648437500000000000000, 4183.0766601562500000000000000, 4187.6923828125000000000000000, 4218.4614257812500000000000000, 4186.6665039062500000000000000, 4181.5385742187500000000000000, 4177.4360351562500000000000000, 4184.1025390625000000000000000, 4222.0512695312500000000000000, 4193.3330078125000000000000000, 4187.1791992187500000000000000, 4209.7436523437500000000000000, 4203.0766601562500000000000000, 4194.3588867187500000000000000, 861.0000000000000000000000000, 2039.0000000000000000000000000, 2029.0000000000000000000000000, 0.0000000000000000000000000, 0.0000000000000000000000000, 0.0000000000000000000000000, 179.0000000000000000000000000, 361.5384521484375000000000000, 4.0000000000000000000000000, 4.0000000000000000000000000, 4.0000000000000000000000000, 4.0000000000000000000000000, 4.0000000000000000000000000, 4.0000000000000000000000000, 4.0000000000000000000000000, 4.0000000000000000000000000, 4.0000000000000000000000000, 4.0000000000000000000000000, 4.0000000000000000000000000, 4.0000000000000000000000000, 4.0000000000000000000000000, 4.0000000000000000000000000, 4.0000000000000000000000000, 4.0000000000000000000000000
96.0000000000000000000000000, 0.0000000000000000000000000, 4185.6411132812500000000000000, 4186.6665039062500000000000000, 4184.1025390625000000000000000, 4221.0253906250000000000000000, 4184.1025390625000000000000000, 4176.9228515625000000000000000, 4170.2563476562500000000000000, 4185.1279296875000000000000000, 4215.8974609375000000000000000, 4202.5639648437500000000000000, 4192.8203125000000000000000000, 4209.2304687500000000000000000, 4207.6923828125000000000000000, 4196.4101562500000000000000000, 853.0000000000000000000000000, 2039.0000000000000000000000000, 2029.0000000000000000000000000, 0.0000000000000000000000000, 0.0000000000000000000000000, 0.0000000000000000000000000, 179.0000000000000000000000000, 369.7435913085937500000000000, 4.0000000000000000000000000, 4.0000000000000000000000000, 4.0000000000000000000000000, 4.0000000000000000000000000, 4.0000000000000000000000000, 4.0000000000000000000000000, 4.0000000000000000000000000, 4.0000000000000000000000000, 4.0000000000000000000000000, 4.0000000000000000000000000, 4.0000000000000000000000000, 4.0000000000000000000000000, 4.0000000000000000000000000, 4.0000000000000000000000000, 4.0000000000000000000000000, 4.0000000000000000000000000
97.0000000000000000000000000, 0.0000000000000000000000000, 4175.8974609375000000000000000, 4174.8715820312500000000000000, 4181.5385742187500000000000000, 4225.6411132812500000000000000, 4174.8715820312500000000000000, 4171.2817382812500000000000000, 4163.0766601562500000000000000, 4178.4614257812500000000000000, 4227.1791992187500000000000000, 4193.3330078125000000000000000, 4182.0512695312500000000000000, 4217.4360351562500000000000000, 4198.4614257812500000000000000, 4184.1025390625000000000000000, 829.0000000000000000000000000, 2040.0000000000000000000000000, 2028.0000000000000000000000000, 0.0000000000000000000000000, 0.0000000000000000000000000, 0.0000000000000000000000000, 179.0000000000000000000000000, 377.4358825683593750000000000, 4.0000000000000000000000000, 4.0000000000000000000000000, 4.0000000000000000000000000, 4.0000000000000000000000000, 4.0000000000000000000000000, 4.0000000000000000000000000, 4.0000000000000000000000000, 4.0000000000000000000000000, 4.0000000000000000000000000, 4.0000000000000000000000000, 4.0000000000000000000000000, 4.0000000000000000000000000, 4.0000000000000000000000000, 4.0000000000000000000000000, 4.0000000000000000000000000, 4.0000000000000000000000000
98.0000000000000000000000000, 0.0000000000000000000000000, 4172.3076171875000000000000000, 4172.8203125000000000000000000, 4175.3842773437500000000000000, 4224.6152343750000000000000000, 4174.3588867187500000000000000, 4172.3076171875000000000000000, 4164.1025390625000000000000000, 4176.9228515625000000000000000, 4230.7690429687500000000000000, 4184.1025390625000000000000000, 4174.3588867187500000000000000, 4224.1025390625000000000000000, 4191.2817382812500000000000000, 4177.4360351562500000000000000, 869.0000000000000000000000000, 2040.0000000000000000000000000, 2027.0000000000000000000000000, 0.0000000000000000000000000, 0.0000000000000000000000000, 0.0000000000000000000000000, 179.0000000000000000000000000, 385.6410217285156250000000000, 4.0000000000000000000000000, 4.0000000000000000000000000, 4.0000000000000000000000000, 4.0000000000000000000000000, 4.0000000000000000000000000, 4.0000000000000000000000000, 4.0000000000000000000000000, 4.0000000000000000000000000, 4.0000000000000000000000000, 4.0000000000000000000000000, 4.0000000000000000000000000, 4.0000000000000000000000000, 4.0000000000000000000000000, 4.0000000000000000000000000, 4.0000000000000000000000000, 4.0000000000000000000000000
99.0000000000000000000000000, 0.0000000000000000000000000, 4175.8974609375000000000000000, 4178.4614257812500000000000000, 4174.3588867187500000000000000, 4227.1791992187500000000000000, 4184.6152343750000000000000000, 4175.3842773437500000000000000, 4171.2817382812500000000000000, 4181.0253906250000000000000000, 4220.0000000000000000000000000, 4190.2563476562500000000000000, 4181.5385742187500000000000000, 4226.6665039062500000000000000, 4195.8974609375000000000000000, 4183.0766601562500000000000000, 861.0000000000000000000000000, 2040.0000000000000000000000000, 2026.0000000000000000000000000, 0.0000000000000000000000000, 0.0000000000000000000000000, 0.0000000000000000000000000, 179.0000000000000000000000000, 393.3333129882812500000000000, 4.0000000000000000000000000, 4.0000000000000000000000000, 4.0000000000000000000000000, 4.0000000000000000000000000, 4.0000000000000000000000000, 4.0000000000000000000000000, 4.0000000000000000000000000, 4.0000000000000000000000000, 4.0000000000000000000000000, 4.0000000000000000000000000, 4.0000000000000000000000000, 4.0000000000000000000000000, 4.0000000000000000000000000, 4.0000000000000000000000000, 4.0000000000000000000000000, 4.0000000000000000000000000
100.0000000000000000000000000, 0.0000000000000000000000000, 4177.9487304687500000000000000, 4173.3330078125000000000000000, 4189.7436523437500000000000000, 4228.7177734375000000000000000, 4189.2304687500000000000000000, 4178.9741210937500000000000000, 4179.4873046875000000000000000, 4180.5126953125000000000000000, 4221.0253906250000000000000000, 4189.2304687500000000000000000, 4180.0000000000000000000000000, 4216.9228515625000000000000000, 4190.2563476562500000000000000, 4182.5639648437500000000000000, 853.0000000000000000000000000, 2040.0000000000000000000000000, 2027.0000000000000000000000000, 0.0000000000000000000000000, 0.0000000000000000000000000, 0.0000000000000000000000000, 179.0000000000000000000000000, 401.5384521484375000000000000, 4.0000000000000000000000000, 4.0000000000000000000000000, 4.0000000000000000000000000, 4.0000000000000000000000000, 4.0000000000000000000000000, 4.0000000000000000000000000, 4.0000000000000000000000000, 4.0000000000000000000000000, 4.0000000000000000000000000, 4.0000000000000000000000000, 4.0000000000000000000000000, 4.0000000000000000000000000, 4.0000000000000000000000000, 4.0000000000000000000000000, 4.0000000000000000000000000, 4.0000000000000000000000000
101.0000000000000000000000000, 0.0000000000000000000000000, 4175.3842773437500000000000000, 4169.7436523437500000000000000, 4183.0766601562500000000000000, 4224.6152343750000000000000000, 4185.1279296875000000000000000, 4179.4873046875000000000000000, 4178.4614257812500000000000000, 4178.4614257812500000000000000, 4228.7177734375000000000000000, 4184.1025390625000000000000000, 4173.8461914062500000000000000, 4212.8203125000000000000000000, 4185.1279296875000000000000000, 4175.8974609375000000000000000, 829.0000000000000000000000000, 2038.0000000000000000000000000, 2026.0000000000000000000000000, 0.0000000000000000000000000, 0.0000000000000000000000000, 0.0000000000000000000000000, 179.0000000000000000000000000, 409.2307739257812500000000000, 4.0000000000000000000000000, 4.0000000000000000000000000, 4.0000000000000000000000000, 4.0000000000000000000000000, 4.0000000000000000000000000, 4.0000000000000000000000000, 4.0000000000000000000000000, 4.0000000000000000000000000, 4.0000000000000000000000000, 4.0000000000000000000000000, 4.0000000000000000000000000, 4.0000000000000000000000000, 4.0000000000000000000000000, 4.0000000000000000000000000, 4.0000000000000000000000000, 4.0000000000000000000000000
102.0000000000000000000000000, 0.0000000000000000000000000, 4176.9228515625000000000000000, 4175.3842773437500000000000000, 4181.0253906250000000000000000, 4219.4873046875000000000000000, 4185.1279296875000000000000000, 4179.4873046875000000000000000, 4179.4873046875000000000000000, 4178.9741210937500000000000000, 4229.2304687500000000000000000, 4187.6923828125000000000000000, 4173.8461914062500000000000000, 4214.8715820312500000000000000, 4189.7436523437500000000000000, 4177.4360351562500000000000000, 869.0000000000000000000000000, 2040.0000000000000000000000000, 2027.0000000000000000000000000, 0.0000000000000000000000000, 0.0000000000000000000000000, 0.0000000000000000000000000, 179.0000000000000000000000000, 417.4358825683593750000000000, 4.0000000000000000000000000, 4.0000000000000000000000000, 4.0000000000000000000000000, 4.0000000000000000000000000, 4.0000000000000000000000000, 4.0000000000000000000000000, 4.0000000000000000000000000, 4.0000000000000000000000000, 4.0000000000000000000000000, 4.0000000000000000000000000, 4.0000000000000000000000000, 4.0000000000000000000000000, 4.0000000000000000000000000, 4.0000000000000000000000000, 4.0000000000000000000000000, 4.0000000000000000000000000
103.0000000000000000000000000, 0.0000000000000000000000000, 4180.5126953125000000000000000, 4178.9741210937500000000000000, 4184.6152343750000000000000000, 4220.0000000000000000000000000, 4190.7690429687500000000000000, 4176.4101562500000000000000000, 4174.8715820312500000000000000, 4178.4614257812500000000000000, 4225.1279296875000000000000000, 4193.3330078125000000000000000, 4177.9487304687500000000000000, 4216.9228515625000000000000000, 4193.8461914062500000000000000, 4183.0766601562500000000000000, 861.0000000000000000000000000, 2037.0000000000000000000000000, 2025.0000000000000000000000000, 0.0000000000000000000000000, 0.0000000000000000000000000, 0.0000000000000000000000000, 179.0000000000000000000000000, 425.1282043457031250000000000, 4.0000000000000000000000000, 4.0000000000000000000000000, 4.0000000000000000000000000, 4.0000000000000000000000000, 4.0000000000000000000000000, 4.0000000000000000000000000, 4.0000000000000000000000000, 4.0000000000000000000000000, 4.0000000000000000000000000, 4.0000000000000000000000000, 4.0000000000000000000000000, 4.0000000000000000000000000, 4.0000000000000000000000000, 4.0000000000000000000000000, 4.0000000000000000000000000, 4.0000000000000000000000000
104.0000000000000000000000000, 0.0000000000000000000000000, 4177.9487304687500000000000000, 4175.8974609375000000000000000, 4178.9741210937500000000000000, 4225.6411132812500000000000000, 4182.0512695312500000000000000, 4169.2304687500000000000000000, 4166.1538085937500000000000000, 4177.9487304687500000000000000, 4227.6923828125000000000000000, 4187.6923828125000000000000000, 4173.3330078125000000000000000, 4217.4360351562500000000000000, 4186.6665039062500000000000000, 4175.8974609375000000000000000, 853.0000000000000000000000000, 2041.0000000000000000000000000, 2027.0000000000000000000000000, 0.0000000000000000000000000, 0.0000000000000000000000000, 0.0000000000000000000000000, 179.0000000000000000000000000, 433.3333129882812500000000000, 4.0000000000000000000000000, 4.0000000000000000000000000, 4.0000000000000000000000000, 4.0000000000000000000000000, 4.0000000000000000000000000, 4.0000000000000000000000000, 4.0000000000000000000000000, 4.0000000000000000000000000, 4.0000000000000000000000000, 4.0000000000000000000000000, 4.0000000000000000000000000, 4.0000000000000000000000000, 4.0000000000000000000000000, 4.0000000000000000000000000, 4.0000000000000000000000000, 4.0000000000000000000000000
105.0000000000000000000000000, 0.0000000000000000000000000, 4174.8715820312500000000000000, 4173.3330078125000000000000000, 4184.1025390625000000000000000, 4225.1279296875000000000000000, 4174.8715820312500000000000000, 4169.7436523437500000000000000, 4169.2304687500000000000000000, 4175.8974609375000000000000000, 4231.7949218750000000000000000, 4181.0253906250000000000000000, 4168.7177734375000000000000000, 4217.4360351562500000000000000, 4179.4873046875000000000000000, 4171.7949218750000000000000000, 829.0000000000000000000000000, 2039.0000000000000000000000000, 2027.0000000000000000000000000, 0.0000000000000000000000000, 0.0000000000000000000000000, 0.0000000000000000000000000, 179.0000000000000000000000000, 441.0256347656250000000000000, 4.0000000000000000000000000, 4.0000000000000000000000000, 4.0000000000000000000000000, 4.0000000000000000000000000, 4.0000000000000000000000000, 4.0000000000000000000000000, 4.0000000000000000000000000, 4.0000000000000000000000000, 4.0000000000000000000000000, 4.0000000000000000000000000, 4.0000000000000000000000000, 4.0000000000000000000000000, 4.0000000000000000000000000, 4.0000000000000000000000000, 4.0000000000000000000000000, 4.0000000000000000000000000
106.0000000000000000000000000, 0.0000000000000000000000000, 4167.6923828125000000000000000, 4174.8715820312500000000000000, 4178.4614257812500000000000000, 4222.5639648437500000000000000, 4182.0512695312500000000000000, 4170.2563476562500000000000000, 4170.7690429687500000000000000, 4171.2817382812500000000000000, 4232.3076171875000000000000000, 4181.0253906250000000000000000, 4168.2050781250000000000000000, 4228.2050781250000000000000000, 4181.0253906250000000000000000, 4173.3330078125000000000000000, 869.0000000000000000000000000, 2040.0000000000000000000000000, 2028.0000000000000000000000000, 0.0000000000000000000000000, 0.0000000000000000000000000, 0.0000000000000000000000000, 179.0000000000000000000000000, 449.2307434082031250000000000, 4.0000000000000000000000000, 4.0000000000000000000000000, 4.0000000000000000000000000, 4.0000000000000000000000000, 4.0000000000000000000000000, 4.0000000000000000000000000, 4.0000000000000000000000000, 4.0000000000000000000000000, 4.0000000000000000000000000, 4.0000000000000000000000000, 4.0000000000000000000000000, 4.0000000000000000000000000, 4.0000000000000000000000000, 4.0000000000000000000000000, 4.0000000000000000000000000, 4.0000000000000000000000000
107.0000000000000000000000000, 0.0000000000000000000000000, 4165.1279296875000000000000000, 4173.3330078125000000000000000, 4176.9228515625000000000000000, 4223.0766601562500000000000000, 4180.5126953125000000000000000, 4170.7690429687500000000000000, 4168.7177734375000000000000000, 4168.7177734375000000000000000, 4234.8715820312500000000000000, 4175.8974609375000000000000000, 4168.2050781250000000000000000, 4227.6923828125000000000000000, 4182.0512695312500000000000000, 4170.7690429687500000000000000, 861.0000000000000000000000000, 2041.0000000000000000000000000, 2027.0000000000000000000000000, 0.0000000000000000000000000, 0.0000000000000000000000000, 0.0000000000000000000000000, 179.0000000000000000000000000, 456.9230651855468750000000000, 4.0000000000000000000000000, 4.0000000000000000000000000, 4.0000000000000000000000000, 4.0000000000000000000000000, 4.0000000000000000000000000, 4.0000000000000000000000000, 4.0000000000000000000000000, 4.0000000000000000000000000, 4.0000000000000000000000000, 4.0000000000000000000000000, 4.0000000000000000000000000, 4.0000000000000000000000000, 4.0000000000000000000000000, 4.0000000000000000000000000, 4.0000000000000000000000000, 4.0000000000000000000000000
108.0000000000000000000000000, 0.0000000000000000000000000, 4177.4360351562500000000000000, 4175.8974609375000000000000000, 4184.6152343750000000000000000, 4223.0766601562500000000000000, 4177.4360351562500000000000000, 4172.3076171875000000000000000, 4168.7177734375000000000000000, 4174.3588867187500000000000000, 4229.7436523437500000000000000, 4183.0766601562500000000000000, 4178.9741210937500000000000000, 4213.8461914062500000000000000, 4190.7690429687500000000000000, 4178.4614257812500000000000000, 853.0000000000000000000000000, 2039.0000000000000000000000000, 2028.0000000000000000000000000, 0.0000000000000000000000000, 0.0000000000000000000000000, 0.0000000000000000000000000, 179.0000000000000000000000000, 465.1282043457031250000000000, 4.0000000000000000000000000, 4.0000000000000000000000000, 4.0000000000000000000000000, 4.0000000000000000000000000, 4.0000000000000000000000000, 4.0000000000000000000000000, 4.0000000000000000000000000, 4.0000000000000000000000000, 4.0000000000000000000000000, 4.0000000000000000000000000, 4.0000000000000000000000000, 4.0000000000000000000000000, 4.0000000000000000000000000, 4.0000000000000000000000000, 4.0000000000000000000000000, 4.0000000000000000000000000
109.0000000000000000000000000, 0.0000000000000000000000000, 4182.5639648437500000000000000, 4180.5126953125000000000000000, 4183.0766601562500000000000000, 4222.5639648437500000000000000, 4183.5898437500000000000000000, 4167.6923828125000000000000000, 4174.8715820312500000000000000, 4178.9741210937500000000000000, 4224.1025390625000000000000000, 4195.8974609375000000000000000, 4185.6411132812500000000000000, 4212.3076171875000000000000000, 4199.4873046875000000000000000, 4186.1538085937500000000000000, 829.0000000000000000000000000, 2040.0000000000000000000000000, 2028.0000000000000000000000000, 0.0000000000000000000000000, 0.0000000000000000000000000, 0.0000000000000000000000000, 179.0000000000000000000000000, 472.8204956054687500000000000, 4.0000000000000000000000000, 4.0000000000000000000000000, 4.0000000000000000000000000, 4.0000000000000000000000000, 4.0000000000000000000000000, 4.0000000000000000000000000, 4.0000000000000000000000000, 4.0000000000000000000000000, 4.0000000000000000000000000, 4.0000000000000000000000000, 4.0000000000000000000000000, 4.0000000000000000000000000, 4.0000000000000000000000000, 4.0000000000000000000000000, 4.0000000000000000000000000, 4.0000000000000000000000000
110.0000000000000000000000000, 0.0000000000000000000000000, 4181.0253906250000000000000000, 4182.5639648437500000000000000, 4187.1791992187500000000000000, 4216.9228515625000000000000000, 4187.6923828125000000000000000, 4170.2563476562500000000000000, 4182.5639648437500000000000000, 4182.5639648437500000000000000, 4224.1025390625000000000000000, 4196.9228515625000000000000000, 4185.1279296875000000000000000, 4211.2817382812500000000000000, 4202.0512695312500000000000000, 4186.6665039062500000000000000, 869.0000000000000000000000000, 2041.0000000000000000000000000, 2030.0000000000000000000000000, 0.0000000000000000000000000, 0.0000000000000000000000000, 0.0000000000000000000000000, 179.0000000000000000000000000, 481.0256347656250000000000000, 4.0000000000000000000000000, 4.0000000000000000000000000, 4.0000000000000000000000000, 4.0000000000000000000000000, 4.0000000000000000000000000, 4.0000000000000000000000000, 4.0000000000000000000000000, 4.0000000000000000000000000, 4.0000000000000000000000000, 4.0000000000000000000000000, 4.0000000000000000000000000, 4.0000000000000000000000000, 4.0000000000000000000000000, 4.0000000000000000000000000, 4.0000000000000000000000000, 4.0000000000000000000000000
111.0000000000000000000000000, 0.0000000000000000000000000, 4178.9741210937500000000000000, 4183.0766601562500000000000000, 4180.5126953125000000000000000, 4215.8974609375000000000000000, 4192.3076171875000000000000000, 4177.4360351562500000000000000, 4182.5639648437500000000000000, 4192.8203125000000000000000000, 4221.0253906250000000000000000, 4196.4101562500000000000000000, 4186.6665039062500000000000000, 4212.8203125000000000000000000, 4204.6152343750000000000000000, 4186.6665039062500000000000000, 861.0000000000000000000000000, 2040.0000000000000000000000000, 2028.0000000000000000000000000, 0.0000000000000000000000000, 0.0000000000000000000000000, 0.0000000000000000000000000, 179.0000000000000000000000000, 488.7179260253906250000000000, 4.0000000000000000000000000, 4.0000000000000000000000000, 4.0000000000000000000000000, 4.0000000000000000000000000, 4.0000000000000000000000000, 4.0000000000000000000000000, 4.0000000000000000000000000, 4.0000000000000000000000000, 4.0000000000000000000000000, 4.0000000000000000000000000, 4.0000000000000000000000000, 4.0000000000000000000000000, 4.0000000000000000000000000, 4.0000000000000000000000000, 4.0000000000000000000000000, 4.0000000000000000000000000
112.0000000000000000000000000, 0.0000000000000000000000000, 4177.4360351562500000000000000, 4185.1279296875000000000000000, 4184.6152343750000000000000000, 4218.9741210937500000000000000, 4192.8203125000000000000000000, 4182.5639648437500000000000000, 4186.6665039062500000000000000, 4193.8461914062500000000000000, 4219.4873046875000000000000000, 4196.9228515625000000000000000, 4185.6411132812500000000000000, 4214.3588867187500000000000000, 4197.9487304687500000000000000, 4184.1025390625000000000000000, 853.0000000000000000000000000, 2037.0000000000000000000000000, 2029.0000000000000000000000000, 0.0000000000000000000000000, 0.0000000000000000000000000, 0.0000000000000000000000000, 179.0000000000000000000000000, 496.9230651855468750000000000, 4.0000000000000000000000000, 4.0000000000000000000000000, 4.0000000000000000000000000, 4.0000000000000000000000000, 4.0000000000000000000000000, 4.0000000000000000000000000, 4.0000000000000000000000000, 4.0000000000000000000000000, 4.0000000000000000000000000, 4.0000000000000000000000000, 4.0000000000000000000000000, 4.0000000000000000000000000, 4.0000000000000000000000000, 4.0000000000000000000000000, 4.0000000000000000000000000, 4.0000000000000000000000000
113.0000000000000000000000000, 0.0000000000000000000000000, 4182.0512695312500000000000000, 4189.2304687500000000000000000, 4191.7949218750000000000000000, 4215.3842773437500000000000000, 4187.1791992187500000000000000, 4184.6152343750000000000000000, 4188.2050781250000000000000000, 4188.7177734375000000000000000, 4219.4873046875000000000000000, 4197.4360351562500000000000000, 4185.6411132812500000000000000, 4213.8461914062500000000000000, 4191.2817382812500000000000000, 4185.1279296875000000000000000, 829.0000000000000000000000000, 2037.0000000000000000000000000, 2030.0000000000000000000000000, 0.0000000000000000000000000, 0.0000000000000000000000000, 0.0000000000000000000000000, 179.0000000000000000000000000, 504.6153869628906250000000000, 4.0000000000000000000000000, 4.0000000000000000000000000, 4.0000000000000000000000000, 4.0000000000000000000000000, 4.0000000000000000000000000, 4.0000000000000000000000000, 4.0000000000000000000000000, 4.0000000000000000000000000, 4.0000000000000000000000000, 4.0000000000000000000000000, 4.0000000000000000000000000, 4.0000000000000000000000000, 4.0000000000000000000000000, 4.0000000000000000000000000, 4.0000000000000000000000000, 4.0000000000000000000000000
114.0000000000000000000000000, 0.0000000000000000000000000, 4178.9741210937500000000000000, 4184.6152343750000000000000000, 4177.4360351562500000000000000, 4217.4360351562500000000000000, 4184.6152343750000000000000000, 4180.0000000000000000000000000, 4180.5126953125000000000000000, 4189.2304687500000000000000000, 4221.5385742187500000000000000, 4193.3330078125000000000000000, 4182.0512695312500000000000000, 4222.0512695312500000000000000, 4190.7690429687500000000000000, 4184.1025390625000000000000000, 869.0000000000000000000000000, 2040.0000000000000000000000000, 2031.0000000000000000000000000, 0.0000000000000000000000000, 0.0000000000000000000000000, 0.0000000000000000000000000, 179.0000000000000000000000000, 512.8204956054687500000000000, 4.0000000000000000000000000, 4.0000000000000000000000000, 4.0000000000000000000000000, 4.0000000000000000000000000, 4.0000000000000000000000000, 4.0000000000000000000000000, 4.0000000000000000000000000, 4.0000000000000000000000000, 4.0000000000000000000000000, 4.0000000000000000000000000, 4.0000000000000000000000000, 4.0000000000000000000000000, 4.0000000000000000000000000, 4.0000000000000000000000000, 4.0000000000000000000000000, 4.0000000000000000000000000
115.0000000000000000000000000, 0.0000000000000000000000000, 4174.8715820312500000000000000, 4178.4614257812500000000000000, 4181.0253906250000000000000000, 4221.5385742187500000000000000, 4182.0512695312500000000000000, 4176.4101562500000000000000000, 4180.5126953125000000000000000, 4192.8203125000000000000000000, 4224.6152343750000000000000000, 4191.2817382812500000000000000, 4178.9741210937500000000000000, 4219.4873046875000000000000000, 4185.1279296875000000000000000, 4180.5126953125000000000000000, 861.0000000000000000000000000, 2039.0000000000000000000000000, 2031.0000000000000000000000000, 0.0000000000000000000000000, 0.0000000000000000000000000, 0.0000000000000000000000000, 179.0000000000000000000000000, 520.5128173828125000000000000, 4.0000000000000000000000000, 4.0000000000000000000000000, 4.0000000000000000000000000, 4.0000000000000000000000000, 4.0000000000000000000000000, 4.0000000000000000000000000, 4.0000000000000000000000000, 4.0000000000000000000000000, 4.0000000000000000000000000, 4.0000000000000000000000000, 4.0000000000000000000000000, 4.0000000000000000000000000, 4.0000000000000000000000000, 4.0000000000000000000000000, 4.0000000000000000000000000, 4.0000000000000000000000000
116.0000000000000000000000000, 0.0000000000000000000000000, 4177.4360351562500000000000000, 4181.0253906250000000000000000, 4184.1025390625000000000000000, 4221.0253906250000000000000000, 4181.5385742187500000000000000, 4176.4101562500000000000000000, 4185.6411132812500000000000000, 4195.3842773437500000000000000, 4218.4614257812500000000000000, 4200.0000000000000000000000000, 4186.1538085937500000000000000, 4217.4360351562500000000000000, 4182.5639648437500000000000000, 4178.4614257812500000000000000, 853.0000000000000000000000000, 2040.0000000000000000000000000, 2031.0000000000000000000000000, 0.0000000000000000000000000, 0.0000000000000000000000000, 0.0000000000000000000000000, 179.0000000000000000000000000, 528.7179565429687500000000000, 4.0000000000000000000000000, 4.0000000000000000000000000, 4.0000000000000000000000000, 4.0000000000000000000000000, 4.0000000000000000000000000, 4.0000000000000000000000000, 4.0000000000000000000000000, 4.0000000000000000000000000, 4.0000000000000000000000000, 4.0000000000000000000000000, 4.0000000000000000000000000, 4.0000000000000000000000000, 4.0000000000000000000000000, 4.0000000000000000000000000, 4.0000000000000000000000000, 4.0000000000000000000000000
117.0000000000000000000000000, 0.0000000000000000000000000, 4176.9228515625000000000000000, 4182.5639648437500000000000000, 4179.4873046875000000000000000, 4221.0253906250000000000000000, 4179.4873046875000000000000000, 4176.9228515625000000000000000, 4186.6665039062500000000000000, 4192.3076171875000000000000000, 4219.4873046875000000000000000, 4195.8974609375000000000000000, 4189.2304687500000000000000000, 4223.0766601562500000000000000, 4184.1025390625000000000000000, 4178.4614257812500000000000000, 829.0000000000000000000000000, 2038.0000000000000000000000000, 2030.0000000000000000000000000, 0.0000000000000000000000000, 0.0000000000000000000000000, 0.0000000000000000000000000, 179.0000000000000000000000000, 536.4102172851562500000000000, 4.0000000000000000000000000, 4.0000000000000000000000000, 4.0000000000000000000000000, 4.0000000000000000000000000, 4.0000000000000000000000000, 4.0000000000000000000000000, 4.0000000000000000000000000, 4.0000000000000000000000000, 4.0000000000000000000000000, 4.0000000000000000000000000, 4.0000000000000000000000000, 4.0000000000000000000000000, 4.0000000000000000000000000, 4.0000000000000000000000000, 4.0000000000000000000000000, 4.0000000000000000000000000
118.0000000000000000000000000, 0.0000000000000000000000000, 4174.8715820312500000000000000, 4175.8974609375000000000000000, 4181.5385742187500000000000000, 4227.1791992187500000000000000, 4177.9487304687500000000000000, 4173.8461914062500000000000000, 4180.5126953125000000000000000, 4183.0766601562500000000000000, 4229.2304687500000000000000000, 4182.5639648437500000000000000, 4183.0766601562500000000000000, 4220.0000000000000000000000000, 4177.9487304687500000000000000, 4178.4614257812500000000000000, 869.0000000000000000000000000, 2040.0000000000000000000000000, 2029.0000000000000000000000000, 0.0000000000000000000000000, 0.0000000000000000000000000, 0.0000000000000000000000000, 179.0000000000000000000000000, 544.6153564453125000000000000, 4.0000000000000000000000000, 4.0000000000000000000000000, 4.0000000000000000000000000, 4.0000000000000000000000000, 4.0000000000000000000000000, 4.0000000000000000000000000, 4.0000000000000000000000000, 4.0000000000000000000000000, 4.0000000000000000000000000, 4.0000000000000000000000000, 4.0000000000000000000000000, 4.0000000000000000000000000, 4.0000000000000000000000000, 4.0000000000000000000000000, 4.0000000000000000000000000, 4.0000000000000000000000000
119.0000000000000000000000000, 0.0000000000000000000000000, 4176.9228515625000000000000000, 4173.3330078125000000000000000, 4180.5126953125000000000000000, 4230.2563476562500000000000000, 4184.6152343750000000000000000, 4172.3076171875000000000000000, 4175.8974609375000000000000000, 4175.8974609375000000000000000, 4232.3076171875000000000000000, 4181.0253906250000000000000000, 4183.5898437500000000000000000, 4217.4360351562500000000000000, 4172.8203125000000000000000000, 4175.8974609375000000000000000, 861.0000000000000000000000000, 2040.0000000000000000000000000, 2029.0000000000000000000000000, 0.0000000000000000000000000, 0.0000000000000000000000000, 0.0000000000000000000000000, 179.0000000000000000000000000, 552.3076782226562500000000000, 4.0000000000000000000000000, 4.0000000000000000000000000, 4.0000000000000000000000000, 4.0000000000000000000000000, 4.0000000000000000000000000, 4.0000000000000000000000000, 4.0000000000000000000000000, 4.0000000000000000000000000, 4.0000000000000000000000000, 4.0000000000000000000000000, 4.0000000000000000000000000, 4.0000000000000000000000000, 4.0000000000000000000000000, 4.0000000000000000000000000, 4.0000000000000000000000000, 4.0000000000000000000000000
120.0000000000000000000000000, 0.0000000000000000000000000, 4187.6923828125000000000000000, 4187.6923828125000000000000000, 4188.7177734375000000000000000, 4214.3588867187500000000000000, 4188.7177734375000000000000000, 4175.8974609375000000000000000, 4176.4101562500000000000000000, 4174.3588867187500000000000000, 4236.4101562500000000000000000, 4181.0253906250000000000000000, 4186.1538085937500000000000000, 4220.5126953125000000000000000, 4172.3076171875000000000000000, 4178.4614257812500000000000000, 853.0000000000000000000000000, 2040.0000000000000000000000000, 2027.0000000000000000000000000, 0.0000000000000000000000000, 0.0000000000000000000000000, 0.0000000000000000000000000, 179.0000000000000000000000000, 560.5128173828125000000000000, 4.0000000000000000000000000, 4.0000000000000000000000000, 4.0000000000000000000000000, 4.0000000000000000000000000, 4.0000000000000000000000000, 4.0000000000000000000000000, 4.0000000000000000000000000, 4.0000000000000000000000000, 4.0000000000000000000000000, 4.0000000000000000000000000, 4.0000000000000000000000000, 4.0000000000000000000000000, 4.0000000000000000000000000, 4.0000000000000000000000000, 4.0000000000000000000000000, 4.0000000000000000000000000
121.0000000000000000000000000, 0.0000000000000000000000000, 4192.3076171875000000000000000, 4203.5898437500000000000000000, 4184.6152343750000000000000000, 4205.6411132812500000000000000, 4187.6923828125000000000000000, 4176.9228515625000000000000000, 4177.4360351562500000000000000, 4174.3588867187500000000000000, 4238.9741210937500000000000000, 4176.4101562500000000000000000, 4178.4614257812500000000000000, 4228.2050781250000000000000000, 4164.1025390625000000000000000, 4179.4873046875000000000000000, 829.0000000000000000000000000, 2040.0000000000000000000000000, 2026.0000000000000000000000000, 0.0000000000000000000000000, 0.0000000000000000000000000, 0.0000000000000000000000000, 179.0000000000000000000000000, 568.7179565429687500000000000, 4.0000000000000000000000000, 4.0000000000000000000000000, 4.0000000000000000000000000, 4.0000000000000000000000000, 4.0000000000000000000000000, 4.0000000000000000000000000, 4.0000000000000000000000000, 4.0000000000000000000000000, 4.0000000000000000000000000, 4.0000000000000000000000000, 4.0000000000000000000000000, 4.0000000000000000000000000, 4.0000000000000000000000000, 4.0000000000000000000000000, 4.0000000000000000000000000, 4.0000000000000000000000000
122.0000000000000000000000000, 0.0000000000000000000000000, 4186.1538085937500000000000000, 4200.0000000000000000000000000, 4179.4873046875000000000000000, 4216.4101562500000000000000000, 4190.2563476562500000000000000, 4180.0000000000000000000000000, 4185.6411132812500000000000000, 4175.3842773437500000000000000, 4235.8974609375000000000000000, 4175.8974609375000000000000000, 4172.8203125000000000000000000, 4229.2304687500000000000000000, 4152.8203125000000000000000000, 4174.8715820312500000000000000, 869.0000000000000000000000000, 2041.0000000000000000000000000, 2027.0000000000000000000000000, 0.0000000000000000000000000, 0.0000000000000000000000000, 0.0000000000000000000000000, 179.0000000000000000000000000, 576.4102172851562500000000000, 4.0000000000000000000000000, 4.0000000000000000000000000, 4.0000000000000000000000000, 4.0000000000000000000000000, 4.0000000000000000000000000, 4.0000000000000000000000000, 4.0000000000000000000000000, 4.0000000000000000000000000, 4.0000000000000000000000000, 4.0000000000000000000000000, 4.0000000000000000000000000, 4.0000000000000000000000000, 4.0000000000000000000000000, 4.0000000000000000000000000, 4.0000000000000000000000000, 4.0000000000000000000000000
123.0000000000000000000000000, 0.0000000000000000000000000, 4186.6665039062500000000000000, 4192.3076171875000000000000000, 4182.5639648437500000000000000, 4218.4614257812500000000000000, 4197.4360351562500000000000000, 4187.1791992187500000000000000, 4191.2817382812500000000000000, 4178.9741210937500000000000000, 4233.3330078125000000000000000, 4180.5126953125000000000000000, 4182.0512695312500000000000000, 4222.0512695312500000000000000, 4161.0253906250000000000000000, 4177.9487304687500000000000000, 861.0000000000000000000000000, 2043.0000000000000000000000000, 2026.0000000000000000000000000, 0.0000000000000000000000000, 0.0000000000000000000000000, 0.0000000000000000000000000, 179.0000000000000000000000000, 584.6153564453125000000000000, 4.0000000000000000000000000, 4.0000000000000000000000000, 4.0000000000000000000000000, 4.0000000000000000000000000, 4.0000000000000000000000000, 4.0000000000000000000000000, 4.0000000000000000000000000, 4.0000000000000000000000000, 4.0000000000000000000000000, 4.0000000000000000000000000, 4.0000000000000000000000000, 4.0000000000000000000000000, 4.0000000000000000000000000, 4.0000000000000000000000000, 4.0000000000000000000000000, 4.0000000000000000000000000
124.0000000000000000000000000, 0.0000000000000000000000000, 4185.1279296875000000000000000, 4192.8203125000000000000000000, 4171.2817382812500000000000000, 4214.3588867187500000000000000, 4197.4360351562500000000000000, 4186.1538085937500000000000000, 4188.2050781250000000000000000, 4181.5385742187500000000000000, 4233.8461914062500000000000000, 4180.5126953125000000000000000, 4186.6665039062500000000000000, 4228.7177734375000000000000000, 4169.7436523437500000000000000, 4177.9487304687500000000000000, 853.0000000000000000000000000, 2042.0000000000000000000000000, 2026.0000000000000000000000000, 0.0000000000000000000000000, 0.0000000000000000000000000, 0.0000000000000000000000000, 179.0000000000000000000000000, 592.3076782226562500000000000, 4.0000000000000000000000000, 4.0000000000000000000000000, 4.0000000000000000000000000, 4.0000000000000000000000000, 4.0000000000000000000000000, 4.0000000000000000000000000, 4.0000000000000000000000000, 4.0000000000000000000000000, 4.0000000000000000000000000, 4.0000000000000000000000000, 4.0000000000000000000000000, 4.0000000000000000000000000, 4.0000000000000000000000000, 4.0000000000000000000000000, 4.0000000000000000000000000, 4.0000000000000000000000000
125.0000000000000000000000000, 0.0000000000000000000000000, 4178.9741210937500000000000000, 4187.1791992187500000000000000, 4172.8203125000000000000000000, 4218.4614257812500000000000000, 4191.7949218750000000000000000, 4183.0766601562500000000000000, 4188.2050781250000000000000000, 4176.9228515625000000000000000, 4236.4101562500000000000000000, 4174.3588867187500000000000000, 4178.9741210937500000000000000, 4234.8715820312500000000000000, 4158.9741210937500000000000000, 4165.6411132812500000000000000, 829.0000000000000000000000000, 2040.0000000000000000000000000, 2028.0000000000000000000000000, 0.0000000000000000000000000, 0.0000000000000000000000000, 0.0000000000000000000000000, 179.0000000000000000000000000, 600.5128173828125000000000000, 4.0000000000000000000000000, 4.0000000000000000000000000, 4.0000000000000000000000000, 4.0000000000000000000000000, 4.0000000000000000000000000, 4.0000000000000000000000000, 4.0000000000000000000000000, 4.0000000000000000000000000, 4.0000000000000000000000000, 4.0000000000000000000000000, 4.0000000000000000000000000, 4.0000000000000000000000000, 4.0000000000000000000000000, 4.0000000000000000000000000, 4.0000000000000000000000000, 4.0000000000000000000000000
126.0000000000000000000000000, 0.0000000000000000000000000, 4179.4873046875000000000000000, 4184.1025390625000000000000000, 4174.8715820312500000000000000, 4224.1025390625000000000000000, 4192.3076171875000000000000000, 4183.0766601562500000000000000, 4183.5898437500000000000000000, 4181.0253906250000000000000000, 4231.2817382812500000000000000, 4179.4873046875000000000000000, 4180.5126953125000000000000000, 4230.7690429687500000000000000, 4160.0000000000000000000000000, 4164.1025390625000000000000000, 869.0000000000000000000000000, 2039.0000000000000000000000000, 2026.0000000000000000000000000, 0.0000000000000000000000000, 0.0000000000000000000000000, 0.0000000000000000000000000, 179.0000000000000000000000000, 608.2051391601562500000000000, 4.0000000000000000000000000, 4.0000000000000000000000000, 4.0000000000000000000000000, 4.0000000000000000000000000, 4.0000000000000000000000000, 4.0000000000000000000000000, 4.0000000000000000000000000, 4.0000000000000000000000000, 4.0000000000000000000000000, 4.0000000000000000000000000, 4.0000000000000000000000000, 4.0000000000000000000000000, 4.0000000000000000000000000, 4.0000000000000000000000000, 4.0000000000000000000000000, 4.0000000000000000000000000
127.0000000000000000000000000, 0.0000000000000000000000000, 4185.1279296875000000000000000, 4186.1538085937500000000000000, 4179.4873046875000000000000000, 4220.0000000000000000000000000, 4191.2817382812500000000000000, 4185.6411132812500000000000000, 4183.5898437500000000000000000, 4192.3076171875000000000000000, 4224.1025390625000000000000000, 4188.2050781250000000000000000, 4187.1791992187500000000000000, 4223.0766601562500000000000000, 4173.8461914062500000000000000, 4175.8974609375000000000000000, 861.0000000000000000000000000, 2039.0000000000000000000000000, 2030.0000000000000000000000000, 0.0000000000000000000000000, 0.0000000000000000000000000, 0.0000000000000000000000000, 179.0000000000000000000000000, 616.4102172851562500000000000, 4.0000000000000000000000000, 4.0000000000000000000000000, 4.0000000000000000000000000, 4.0000000000000000000000000, 4.0000000000000000000000000, 4.0000000000000000000000000, 4.0000000000000000000000000, 4.0000000000000000000000000, 4.0000000000000000000000000, 4.0000000000000000000000000, 4.0000000000000000000000000, 4.0000000000000000000000000, 4.0000000000000000000000000, 4.0000000000000000000000000, 4.0000000000000000000000000, 4.0000000000000000000000000
128.0000000000000000000000000, 0.0000000000000000000000000, 4188.2050781250000000000000000, 4185.6411132812500000000000000, 4189.2304687500000000000000000, 4214.3588867187500000000000000, 4191.2817382812500000000000000, 4188.7177734375000000000000000, 4190.2563476562500000000000000, 4189.7436523437500000000000000, 4226.6665039062500000000000000, 4185.6411132812500000000000000, 4183.0766601562500000000000000, 4220.0000000000000000000000000, 4171.7949218750000000000000000, 4177.9487304687500000000000000, 853.0000000000000000000000000, 2039.0000000000000000000000000, 2016.0000000000000000000000000, 0.0000000000000000000000000, 0.0000000000000000000000000, 0.0000000000000000000000000, 179.0000000000000000000000000, 624.1025390625000000000000000, 4.0000000000000000000000000, 4.0000000000000000000000000, 4.0000000000000000000000000, 4.0000000000000000000000000, 4.0000000000000000000000000, 4.0000000000000000000000000, 4.0000000000000000000000000, 4.0000000000000000000000000, 4.0000000000000000000000000, 4.0000000000000000000000000, 4.0000000000000000000000000, 4.0000000000000000000000000, 4.0000000000000000000000000, 4.0000000000000000000000000, 4.0000000000000000000000000, 4.0000000000000000000000000
0.0000000000000000000000000, 0.0000000000000000000000000, 4181.5385742187500000000000000, 4183.0766601562500000000000000, 4174.8715820312500000000000000, 4224.6152343750000000000000000, 4192.8203125000000000000000000, 4184.6152343750000000000000000, 4189.2304687500000000000000000, 4179.4873046875000000000000000, 4232.3076171875000000000000000, 4179.4873046875000000000000000, 4175.8974609375000000000000000, 4229.7436523437500000000000000, 4159.4873046875000000000000000, 4166.6665039062500000000000000, 788.0000000000000000000000000, 2042.0000000000000000000000000, 2027.0000000000000000000000000, 0.0000000000000000000000000, 0.0000000000000000000000000, 0.0000000000000000000000000, 179.0000000000000000000000000, 624.1025390625000000000000000, 4.0000000000000000000000000, 4.0000000000000000000000000, 4.0000000000000000000000000, 4.0000000000000000000000000, 4.0000000000000000000000000, 4.0000000000000000000000000, 4.0000000000000000000000000, 4.0000000000000000000000000, 4.0000000000000000000000000, 4.0000000000000000000000000, 4.0000000000000000000000000, 4.0000000000000000000000000, 4.0000000000000000000000000, 4.0000000000000000000000000, 4.0000000000000000000000000, 4.0000000000000000000000000
1.0000000000000000000000000, 0.0000000000000000000000000, 4177.4360351562500000000000000, 4175.8974609375000000000000000, 4172.8203125000000000000000000, 4233.3330078125000000000000000, 4186.6665039062500000000000000, 4181.5385742187500000000000000, 4188.7177734375000000000000000, 4178.9741210937500000000000000, 4236.4101562500000000000000000, 4170.2563476562500000000000000, 4171.7949218750000000000000000, 4231.7949218750000000000000000, 4153.8461914062500000000000000, 4161.0253906250000000000000000, 848.0000000000000000000000000, 2043.0000000000000000000000000, 2026.0000000000000000000000000, 0.0000000000000000000000000, 0.0000000000000000000000000, 0.0000000000000000000000000, 179.0000000000000000000000000, 632.3076782226562500000000000, 4.0000000000000000000000000, 4.0000000000000000000000000, 4.0000000000000000000000000, 4.0000000000000000000000000, 4.0000000000000000000000000, 4.0000000000000000000000000, 4.0000000000000000000000000, 4.0000000000000000000000000, 4.0000000000000000000000000, 4.0000000000000000000000000, 4.0000000000000000000000000, 4.0000000000000000000000000, 4.0000000000000000000000000, 4.0000000000000000000000000, 4.0000000000000000000000000, 4.0000000000000000000000000
2.0000000000000000000000000, 0.0000000000000000000000000, 4183.0766601562500000000000000, 4178.9741210937500000000000000, 4177.4360351562500000000000000, 4224.6152343750000000000000000, 4183.0766601562500000000000000, 4180.0000000000000000000000000, 4186.1538085937500000000000000, 4187.1791992187500000000000000, 4232.8203125000000000000000000, 4173.3330078125000000000000000, 4177.9487304687500000000000000, 4227.6923828125000000000000000, 4164.1025390625000000000000000, 4167.6923828125000000000000000, 857.0000000000000000000000000, 2039.0000000000000000000000000, 2029.0000000000000000000000000, 0.0000000000000000000000000, 0.0000000000000000000000000, 0.0000000000000000000000000, 179.0000000000000000000000000, 640.0000000000000000000000000, 4.0000000000000000000000000, 4.0000000000000000000000000, 4.0000000000000000000000000, 4.0000000000000000000000000, 4.0000000000000000000000000, 4.0000000000000000000000000, 4.0000000000000000000000000, 4.0000000000000000000000000, 4.0000000000000000000000000, 4.0000000000000000000000000, 4.0000000000000000000000000, 4.0000000000000000000000000, 4.0000000000000000000000000, 4.0000000000000000000000000, 4.0000000000000000000000000, 4.0000000000000000000000000
3.0000000000000000000000000, 0.0000000000000000000000000, 4187.6923828125000000000000000, 4192.8203125000000000000000000, 4180.5126953125000000000000000, 4216.9228515625000000000000000, 4188.2050781250000000000000000, 4178.9741210937500000000000000, 4186.6665039062500000000000000, 4190.2563476562500000000000000, 4226.1538085937500000000000000, 4189.2304687500000000000000000, 4188.2050781250000000000000000, 4226.6665039062500000000000000, 4175.8974609375000000000000000, 4173.8461914062500000000000000, 892.0000000000000000000000000, 2042.0000000000000000000000000, 2030.0000000000000000000000000, 0.0000000000000000000000000, 0.0000000000000000000000000, 0.0000000000000000000000000, 179.0000000000000000000000000, 648.2051391601562500000000000, 4.0000000000000000000000000, 4.0000000000000000000000000, 4.0000000000000000000000000, 4.0000000000000000000000000, 4.0000000000000000000000000, 4.0000000000000000000000000, 4.0000000000000000000000000, 4.0000000000000000000000000, 4.0000000000000000000000000, 4.0000000000000000000000000, 4.0000000000000000000000000, 4.0000000000000000000000000, 4.0000000000000000000000000, 4.0000000000000000000000000, 4.0000000000000000000000000, 4.0000000000000000000000000
4.0000000000000000000000000, 0.0000000000000000000000000, 4189.7436523437500000000000000, 4192.8203125000000000000000000, 4188.7177734375000000000000000, 4215.8974609375000000000000000, 4193.8461914062500000000000000, 4180.5126953125000000000000000, 4192.3076171875000000000000000, 4184.6152343750000000000000000, 4227.1791992187500000000000000, 4188.2050781250000000000000000, 4189.7436523437500000000000000, 4223.0766601562500000000000000, 4172.8203125000000000000000000, 4175.8974609375000000000000000, 875.0000000000000000000000000, 2040.0000000000000000000000000, 2031.0000000000000000000000000, 0.0000000000000000000000000, 0.0000000000000000000000000, 0.0000000000000000000000000, 179.0000000000000000000000000, 655.8973999023437500000000000, 4.0000000000000000000000000, 4.0000000000000000000000000, 4.0000000000000000000000000, 4.0000000000000000000000000, 4.0000000000000000000000000, 4.0000000000000000000000000, 4.0000000000000000000000000, 4.0000000000000000000000000, 4.0000000000000000000000000, 4.0000000000000000000000000, 4.0000000000000000000000000, 4.0000000000000000000000000, 4.0000000000000000000000000, 4.0000000000000000000000000, 4.0000000000000000000000000, 4.0000000000000000000000000
5.0000000000000000000000000, 0.0000000000000000000000000, 4189.2304687500000000000000000, 4185.6411132812500000000000000, 4178.9741210937500000000000000, 4218.9741210937500000000000000, 4197.9487304687500000000000000, 4182.0512695312500000000000000, 4194.3588867187500000000000000, 4180.0000000000000000000000000, 4228.2050781250000000000000000, 4176.4101562500000000000000000, 4182.5639648437500000000000000, 4227.1791992187500000000000000, 4169.7436523437500000000000000, 4172.3076171875000000000000000, 824.0000000000000000000000000, 2039.0000000000000000000000000, 2032.0000000000000000000000000, 0.0000000000000000000000000, 0.0000000000000000000000000, 0.0000000000000000000000000, 179.0000000000000000000000000, 664.1025390625000000000000000, 4.0000000000000000000000000, 4.0000000000000000000000000, 4.0000000000000000000000000, 4.0000000000000000000000000, 4.0000000000000000000000000, 4.0000000000000000000000000, 4.0000000000000000000000000, 4.0000000000000000000000000, 4.0000000000000000000000000, 4.0000000000000000000000000, 4.0000000000000000000000000, 4.0000000000000000000000000, 4.0000000000000000000000000, 4.0000000000000000000000000, 4.0000000000000000000000000, 4.0000000000000000000000000
6.0000000000000000000000000, 0.0000000000000000000000000, 4185.6411132812500000000000000, 4186.1538085937500000000000000, 4176.9228515625000000000000000, 4218.4614257812500000000000000, 4195.3842773437500000000000000, 4184.6152343750000000000000000, 4197.9487304687500000000000000, 4178.4614257812500000000000000, 4230.7690429687500000000000000, 4173.3330078125000000000000000, 4175.8974609375000000000000000, 4233.3330078125000000000000000, 4168.7177734375000000000000000, 4166.1538085937500000000000000, 827.0000000000000000000000000, 2041.0000000000000000000000000, 2030.0000000000000000000000000, 0.0000000000000000000000000, 0.0000000000000000000000000, 0.0000000000000000000000000, 179.0000000000000000000000000, 671.7948608398437500000000000, 4.0000000000000000000000000, 4.0000000000000000000000000, 4.0000000000000000000000000, 4.0000000000000000000000000, 4.0000000000000000000000000, 4.0000000000000000000000000, 4.0000000000000000000000000, 4.0000000000000000000000000, 4.0000000000000000000000000, 4.0000000000000000000000000, 4.0000000000000000000000000, 4.0000000000000000000000000, 4.0000000000000000000000000, 4.0000000000000000000000000, 4.0000000000000000000000000, 4.0000000000000000000000000
7.0000000000000000000000000, 0.0000000000000000000000000, 4178.4614257812500000000000000, 4186.1538085937500000000000000, 4172.8203125000000000000000000, 4220.0000000000000000000000000, 4188.7177734375000000000000000, 4180.5126953125000000000000000, 4195.8974609375000000000000000, 4180.0000000000000000000000000, 4234.3588867187500000000000000, 4173.8461914062500000000000000, 4175.3842773437500000000000000, 4237.4360351562500000000000000, 4163.5898437500000000000000000, 4163.5898437500000000000000000, 846.0000000000000000000000000, 2041.0000000000000000000000000, 2030.0000000000000000000000000, 0.0000000000000000000000000, 0.0000000000000000000000000, 0.0000000000000000000000000, 179.0000000000000000000000000, 680.0000000000000000000000000, 4.0000000000000000000000000, 4.0000000000000000000000000, 4.0000000000000000000000000, 4.0000000000000000000000000, 4.0000000000000000000000000, 4.0000000000000000000000000, 4.0000000000000000000000000, 4.0000000000000000000000000, 4.0000000000000000000000000, 4.0000000000000000000000000, 4.0000000000000000000000000, 4.0000000000000000000000000, 4.0000000000000000000000000, 4.0000000000000000000000000, 4.0000000000000000000000000, 4.0000000000000000000000000
8.0000000000000000000000000, 0.0000000000000000000000000, 4174.3588867187500000000000000, 4183.0766601562500000000000000, 4164.1025390625000000000000000, 4224.1025390625000000000000000, 4187.1791992187500000000000000, 4177.9487304687500000000000000, 4194.3588867187500000000000000, 4182.5639648437500000000000000, 4234.8715820312500000000000000, 4169.7436523437500000000000000, 4173.8461914062500000000000000, 4239.4873046875000000000000000, 4157.4360351562500000000000000, 4160.5126953125000000000000000, 843.0000000000000000000000000, 2040.0000000000000000000000000, 2031.0000000000000000000000000, 0.0000000000000000000000000, 0.0000000000000000000000000, 0.0000000000000000000000000, 179.0000000000000000000000000, 688.2051391601562500000000000, 4.0000000000000000000000000, 4.0000000000000000000000000, 4.0000000000000000000000000, 4.0000000000000000000000000, 4.0000000000000000000000000, 4.0000000000000000000000000, 4.0000000000000000000000000, 4.0000000000000000000000000, 4.0000000000000000000000000, 4.0000000000000000000000000, 4.0000000000000000000000000, 4.0000000000000000000000000, 4.0000000000000000000000000, 4.0000000000000000000000000, 4.0000000000000000000000000, 4.0000000000000000000000000
9.0000000000000000000000000, 0.0000000000000000000000000, 4184.1025390625000000000000000, 4188.2050781250000000000000000, 4179.4873046875000000000000000, 4215.3842773437500000000000000, 4191.2817382812500000000000000, 4183.5898437500000000000000000, 4196.9228515625000000000000000, 4184.1025390625000000000000000, 4232.3076171875000000000000000, 4173.3330078125000000000000000, 4173.3330078125000000000000000, 4233.3330078125000000000000000, 4155.8974609375000000000000000, 4161.5385742187500000000000000, 868.0000000000000000000000000, 2038.0000000000000000000000000, 2030.0000000000000000000000000, 0.0000000000000000000000000, 0.0000000000000000000000000, 0.0000000000000000000000000, 179.0000000000000000000000000, 695.8973999023437500000000000, 4.0000000000000000000000000, 4.0000000000000000000000000, 4.0000000000000000000000000, 4.0000000000000000000000000, 4.0000000000000000000000000, 4.0000000000000000000000000, 4.0000000000000000000000000, 4.0000000000000000000000000, 4.0000000000000000000000000, 4.0000000000000000000000000, 4.0000000000000000000000000, 4.0000000000000000000000000, 4.0000000000000000000000000, 4.0000000000000000000000000, 4.0000000000000000000000000, 4.0000000000000000000000000
10.0000000000000000000000000, 0.0000000000000000000000000, 4187.1791992187500000000000000, 4195.8974609375000000000000000, 4181.5385742187500000000000000, 4212.8203125000000000000000000, 4195.3842773437500000000000000, 4184.6152343750000000000000000, 4193.3330078125000000000000000, 4184.6152343750000000000000000, 4231.2817382812500000000000000, 4175.3842773437500000000000000, 4173.3330078125000000000000000, 4234.3588867187500000000000000, 4158.4614257812500000000000000, 4164.6152343750000000000000000, 869.0000000000000000000000000, 2043.0000000000000000000000000, 2030.0000000000000000000000000, 0.0000000000000000000000000, 0.0000000000000000000000000, 0.0000000000000000000000000, 179.0000000000000000000000000, 704.1025390625000000000000000, 4.0000000000000000000000000, 4.0000000000000000000000000, 4.0000000000000000000000000, 4.0000000000000000000000000, 4.0000000000000000000000000, 4.0000000000000000000000000, 4.0000000000000000000000000, 4.0000000000000000000000000, 4.0000000000000000000000000, 4.0000000000000000000000000, 4.0000000000000000000000000, 4.0000000000000000000000000, 4.0000000000000000000000000, 4.0000000000000000000000000, 4.0000000000000000000000000, 4.0000000000000000000000000
11.0000000000000000000000000, 0.0000000000000000000000000, 4176.9228515625000000000000000, 4191.2817382812500000000000000, 4174.8715820312500000000000000, 4223.0766601562500000000000000, 4190.7690429687500000000000000, 4181.5385742187500000000000000, 4189.7436523437500000000000000, 4174.8715820312500000000000000, 4241.5385742187500000000000000, 4162.0512695312500000000000000, 4163.5898437500000000000000000, 4238.4614257812500000000000000, 4152.8203125000000000000000000, 4160.5126953125000000000000000, 861.0000000000000000000000000, 2041.0000000000000000000000000, 2030.0000000000000000000000000, 0.0000000000000000000000000, 0.0000000000000000000000000, 0.0000000000000000000000000, 179.0000000000000000000000000, 711.7948608398437500000000000, 4.0000000000000000000000000, 4.0000000000000000000000000, 4.0000000000000000000000000, 4.0000000000000000000000000, 4.0000000000000000000000000, 4.0000000000000000000000000, 4.0000000000000000000000000, 4.0000000000000000000000000, 4.0000000000000000000000000, 4.0000000000000000000000000, 4.0000000000000000000000000, 4.0000000000000000000000000, 4.0000000000000000000000000, 4.0000000000000000000000000, 4.0000000000000000000000000, 4.0000000000000000000000000
12.0000000000000000000000000, 0.0000000000000000000000000, 4173.3330078125000000000000000, 4185.6411132812500000000000000, 4174.3588867187500000000000000, 4223.0766601562500000000000000, 4186.6665039062500000000000000, 4174.8715820312500000000000000, 4185.1279296875000000000000000, 4169.2304687500000000000000000, 4245.1279296875000000000000000, 4164.1025390625000000000000000, 4164.1025390625000000000000000, 4239.4873046875000000000000000, 4151.7949218750000000000000000, 4157.4360351562500000000000000, 853.0000000000000000000000000, 2044.0000000000000000000000000, 2028.0000000000000000000000000, 0.0000000000000000000000000, 0.0000000000000000000000000, 0.0000000000000000000000000, 179.0000000000000000000000000, 720.0000000000000000000000000, 4.0000000000000000000000000, 4.0000000000000000000000000, 4.0000000000000000000000000, 4.0000000000000000000000000, 4.0000000000000000000000000, 4.0000000000000000000000000, 4.0000000000000000000000000, 4.0000000000000000000000000, 4.0000000000000000000000000, 4.0000000000000000000000000, 4.0000000000000000000000000, 4.0000000000000000000000000, 4.0000000000000000000000000, 4.0000000000000000000000000, 4.0000000000000000000000000, 4.0000000000000000000000000
13.0000000000000000000000000, 0.0000000000000000000000000, 4175.8974609375000000000000000, 4183.5898437500000000000000000, 4171.7949218750000000000000000, 4217.9487304687500000000000000, 4187.6923828125000000000000000, 4168.7177734375000000000000000, 4181.5385742187500000000000000, 4175.8974609375000000000000000, 4236.4101562500000000000000000, 4177.4360351562500000000000000, 4171.2817382812500000000000000, 4241.0253906250000000000000000, 4156.4101562500000000000000000, 4156.4101562500000000000000000, 829.0000000000000000000000000, 2042.0000000000000000000000000, 2027.0000000000000000000000000, 0.0000000000000000000000000, 0.0000000000000000000000000, 0.0000000000000000000000000, 179.0000000000000000000000000, 727.6922607421875000000000000, 4.0000000000000000000000000, 4.0000000000000000000000000, 4.0000000000000000000000000, 4.0000000000000000000000000, 4.0000000000000000000000000, 4.0000000000000000000000000, 4.0000000000000000000000000, 4.0000000000000000000000000, 4.0000000000000000000000000, 4.0000000000000000000000000, 4.0000000000000000000000000, 4.0000000000000000000000000, 4.0000000000000000000000000, 4.0000000000000000000000000, 4.0000000000000000000000000, 4.0000000000000000000000000
14.0000000000000000000000000, 0.0000000000000000000000000, 4181.0253906250000000000000000, 4183.5898437500000000000000000, 4178.9741210937500000000000000, 4218.4614257812500000000000000, 4183.5898437500000000000000000, 4172.3076171875000000000000000, 4183.0766601562500000000000000, 4175.3842773437500000000000000, 4232.8203125000000000000000000, 4171.7949218750000000000000000, 4168.7177734375000000000000000, 4234.3588867187500000000000000, 4158.4614257812500000000000000, 4161.0253906250000000000000000, 869.0000000000000000000000000, 2042.0000000000000000000000000, 2028.0000000000000000000000000, 0.0000000000000000000000000, 0.0000000000000000000000000, 0.0000000000000000000000000, 179.0000000000000000000000000, 735.8973999023437500000000000, 4.0000000000000000000000000, 4.0000000000000000000000000, 4.0000000000000000000000000, 4.0000000000000000000000000, 4.0000000000000000000000000, 4.0000000000000000000000000, 4.0000000000000000000000000, 4.0000000000000000000000000, 4.0000000000000000000000000, 4.0000000000000000000000000, 4.0000000000000000000000000, 4.0000000000000000000000000, 4.0000000000000000000000000, 4.0000000000000000000000000, 4.0000000000000000000000000, 4.0000000000000000000000000
15.0000000000000000000000000, 0.0000000000000000000000000, 4181.5385742187500000000000000, 4189.7436523437500000000000000, 4177.4360351562500000000000000, 4222.5639648437500000000000000, 4185.1279296875000000000000000, 4173.8461914062500000000000000, 4180.0000000000000000000000000, 4172.3076171875000000000000000, 4232.8203125000000000000000000, 4169.2304687500000000000000000, 4170.2563476562500000000000000, 4231.2817382812500000000000000, 4164.6152343750000000000000000, 4170.7690429687500000000000000, 861.0000000000000000000000000, 2043.0000000000000000000000000, 2028.0000000000000000000000000, 0.0000000000000000000000000, 0.0000000000000000000000000, 0.0000000000000000000000000, 179.0000000000000000000000000, 743.5897216796875000000000000, 4.0000000000000000000000000, 4.0000000000000000000000000, 4.0000000000000000000000000, 4.0000000000000000000000000, 4.0000000000000000000000000, 4.0000000000000000000000000, 4.0000000000000000000000000, 4.0000000000000000000000000, 4.0000000000000000000000000, 4.0000000000000000000000000, 4.0000000000000000000000000, 4.0000000000000000000000000, 4.0000000000000000000000000, 4.0000000000000000000000000, 4.0000000000000000000000000, 4.0000000000000000000000000
16.0000000000000000000000000, 0.0000000000000000000000000, 4186.6665039062500000000000000, 4192.8203125000000000000000000, 4186.6665039062500000000000000, 4217.9487304687500000000000000, 4193.3330078125000000000000000, 4177.9487304687500000000000000, 4184.1025390625000000000000000, 4181.5385742187500000000000000, 4228.7177734375000000000000000, 4180.5126953125000000000000000, 4178.4614257812500000000000000, 4223.5898437500000000000000000, 4171.2817382812500000000000000, 4174.8715820312500000000000000, 0.0000000000000000000000000, 2041.0000000000000000000000000, 2028.0000000000000000000000000, 0.0000000000000000000000000, 0.0000000000000000000000000, 0.0000000000000000000000000, 179.0000000000000000000000000, 751.7948608398437500000000000, 4.0000000000000000000000000, 4.0000000000000000000000000, 4.0000000000000000000000000, 4.0000000000000000000000000, 4.0000000000000000000000000, 4.0000000000000000000000000, 4.0000000000000000000000000, 4.0000000000000000000000000, 4.0000000000000000000000000, 4.0000000000000000000000000, 4.0000000000000000000000000, 4.0000000000000000000000000, 4.0000000000000000000000000, 4.0000000000000000000000000, 4.0000000000000000000000000, 4.0000000000000000000000000
17.0000000000000000000000000, 0.0000000000000000000000000, 4199.4873046875000000000000000, 4195.3842773437500000000000000, 4193.3330078125000000000000000, 4207.1791992187500000000000000, 4195.8974609375000000000000000, 4182.5639648437500000000000000, 4185.6411132812500000000000000, 4190.7690429687500000000000000, 4221.0253906250000000000000000, 4186.1538085937500000000000000, 4183.5898437500000000000000000, 4214.3588867187500000000000000, 4179.4873046875000000000000000, 4180.0000000000000000000000000, 0.0000000000000000000000000, 2040.0000000000000000000000000, 2030.0000000000000000000000000, 0.0000000000000000000000000, 0.0000000000000000000000000, 0.0000000000000000000000000, 179.0000000000000000000000000, 759.4871826171875000000000000, 4.0000000000000000000000000, 4.0000000000000000000000000, 4.0000000000000000000000000, 4.0000000000000000000000000, 4.0000000000000000000000000, 4.0000000000000000000000000, 4.0000000000000000000000000, 4.0000000000000000000000000, 4.0000000000000000000000000, 4.0000000000000000000000000, 4.0000000000000000000000000, 4.0000000000000000000000000, 4.0000000000000000000000000, 4.0000000000000000000000000, 4.0000000000000000000000000, 4.0000000000000000000000000
18.0000000000000000000000000, 0.0000000000000000000000000, 4194.3588867187500000000000000, 4196.9228515625000000000000000, 4180.0000000000000000000000000, 4209.2304687500000000000000000, 4193.3330078125000000000000000, 4177.9487304687500000000000000, 4180.0000000000000000000000000, 4185.6411132812500000000000000, 4224.6152343750000000000000000, 4180.5126953125000000000000000, 4179.4873046875000000000000000, 4221.5385742187500000000000000, 4178.4614257812500000000000000, 4181.0253906250000000000000000, 0.0000000000000000000000000, 2045.0000000000000000000000000, 2028.0000000000000000000000000, 0.0000000000000000000000000, 0.0000000000000000000000000, 0.0000000000000000000000000, 179.0000000000000000000000000, 767.6922607421875000000000000, 4.0000000000000000000000000, 4.0000000000000000000000000, 4.0000000000000000000000000, 4.0000000000000000000000000, 4.0000000000000000000000000, 4.0000000000000000000000000, 4.0000000000000000000000000, 4.0000000000000000000000000, 4.0000000000000000000000000, 4.0000000000000000000000000, 4.0000000000000000000000000, 4.0000000000000000000000000, 4.0000000000000000000000000, 4.0000000000000000000000000, 4.0000000000000000000000000, 4.0000000000000000000000000
19.0000000000000000000000000, 0.0000000000000000000000000, 4181.0253906250000000000000000, 4188.2050781250000000000000000, 4182.0512695312500000000000000, 4224.1025390625000000000000000, 4194.3588867187500000000000000, 4178.4614257812500000000000000, 4182.5639648437500000000000000, 4175.3842773437500000000000000, 4238.4614257812500000000000000, 4170.2563476562500000000000000, 4169.7436523437500000000000000, 4228.2050781250000000000000000, 4163.5898437500000000000000000, 4172.3076171875000000000000000, 0.0000000000000000000000000, 2045.0000000000000000000000000, 2029.0000000000000000000000000, 0.0000000000000000000000000, 0.0000000000000000000000000, 0.0000000000000000000000000, 179.0000000000000000000000000, 775.3845825195312500000000000, 4.0000000000000000000000000, 4.0000000000000000000000000, 4.0000000000000000000000000, 4.0000000000000000000000000, 4.0000000000000000000000000, 4.0000000000000000000000000, 4.0000000000000000000000000, 4.0000000000000000000000000, 4.0000000000000000000000000, 4.0000000000000000000000000, 4.0000000000000000000000000, 4.0000000000000000000000000, 4.0000000000000000000000000, 4.0000000000000000000000000, 4.0000000000000000000000000, 4.0000000000000000000000000
20.0000000000000000000000000, 0.0000000000000000000000000, 4178.4614257812500000000000000, 4182.0512695312500000000000000, 4179.4873046875000000000000000, 4226.6665039062500000000000000, 4196.4101562500000000000000000, 4176.9228515625000000000000000, 4183.5898437500000000000000000, 4175.3842773437500000000000000, 4237.4360351562500000000000000, 4167.1791992187500000000000000, 4165.1279296875000000000000000, 4231.7949218750000000000000000, 4160.5126953125000000000000000, 4167.1791992187500000000000000, 0.0000000000000000000000000, 2043.0000000000000000000000000, 2030.0000000000000000000000000, 0.0000000000000000000000000, 0.0000000000000000000000000, 0.0000000000000000000000000, 179.0000000000000000000000000, 783.5897216796875000000000000, 4.0000000000000000000000000, 4.0000000000000000000000000, 4.0000000000000000000000000, 4.0000000000000000000000000, 4.0000000000000000000000000, 4.0000000000000000000000000, 4.0000000000000000000000000, 4.0000000000000000000000000, 4.0000000000000000000000000, 4.0000000000000000000000000, 4.0000000000000000000000000, 4.0000000000000000000000000, 4.0000000000000000000000000, 4.0000000000000000000000000, 4.0000000000000000000000000, 4.0000000000000000000000000
21.0000000000000000000000000, 0.0000000000000000000000000, 4186.1538085937500000000000000, 4188.7177734375000000000000000, 4182.0512695312500000000000000, 4211.2817382812500000000000000, 4190.7690429687500000000000000, 4176.9228515625000000000000000, 4184.1025390625000000000000000, 4183.5898437500000000000000000, 4226.6665039062500000000000000, 4180.0000000000000000000000000, 4169.7436523437500000000000000, 4227.6923828125000000000000000, 4171.7949218750000000000000000, 4173.8461914062500000000000000, 0.0000000000000000000000000, 2042.0000000000000000000000000, 2028.0000000000000000000000000, 0.0000000000000000000000000, 0.0000000000000000000000000, 0.0000000000000000000000000, 179.0000000000000000000000000, 791.2820434570312500000000000, 4.0000000000000000000000000, 4.0000000000000000000000000, 4.0000000000000000000000000, 4.0000000000000000000000000, 4.0000000000000000000000000, 4.0000000000000000000000000, 4.0000000000000000000000000, 4.0000000000000000000000000, 4.0000000000000000000000000, 4.0000000000000000000000000, 4.0000000000000000000000000, 4.0000000000000000000000000, 4.0000000000000000000000000, 4.0000000000000000000000000, 4.0000000000000000000000000, 4.0000000000000000000000000
22.0000000000000000000000000, 0.0000000000000000000000000, 4194.8715820312500000000000000, 4198.4614257812500000000000000, 4197.9487304687500000000000000, 4203.0766601562500000000000000, 4194.8715820312500000000000000, 4186.6665039062500000000000000, 4190.2563476562500000000000000, 4193.8461914062500000000000000, 4220.0000000000000000000000000, 4191.2817382812500000000000000, 4181.0253906250000000000000000, 4216.4101562500000000000000000, 4181.0253906250000000000000000, 4184.6152343750000000000000000, 0.0000000000000000000000000, 2040.0000000000000000000000000, 2029.0000000000000000000000000, 0.0000000000000000000000000, 0.0000000000000000000000000, 0.0000000000000000000000000, 179.0000000000000000000000000, 799.4871826171875000000000000, 4.0000000000000000000000000, 4.0000000000000000000000000, 4.0000000000000000000000000, 4.0000000000000000000000000, 4.0000000000000000000000000, 4.0000000000000000000000000, 4.0000000000000000000000000, 4.0000000000000000000000000, 4.0000000000000000000000000, 4.0000000000000000000000000, 4.0000000000000000000000000, 4.0000000000000000000000000, 4.0000000000000000000000000, 4.0000000000000000000000000, 4.0000000000000000000000000, 4.0000000000000000000000000
23.0000000000000000000000000, 0.0000000000000000000000000, 4194.8715820312500000000000000, 4197.9487304687500000000000000, 4195.3842773437500000000000000, 4210.7690429687500000000000000, 4207.1791992187500000000000000, 4191.7949218750000000000000000, 4196.9228515625000000000000000, 4197.9487304687500000000000000, 4220.5126953125000000000000000, 4191.7949218750000000000000000, 4188.7177734375000000000000000, 4216.4101562500000000000000000, 4185.1279296875000000000000000, 4186.1538085937500000000000000, 0.0000000000000000000000000, 2040.0000000000000000000000000, 2030.0000000000000000000000000, 0.0000000000000000000000000, 0.0000000000000000000000000, 0.0000000000000000000000000, 179.0000000000000000000000000, 807.1794433593750000000000000, 4.0000000000000000000000000, 4.0000000000000000000000000, 4.0000000000000000000000000, 4.0000000000000000000000000, 4.0000000000000000000000000, 4.0000000000000000000000000, 4.0000000000000000000000000, 4.0000000000000000000000000, 4.0000000000000000000000000, 4.0000000000000000000000000, 4.0000000000000000000000000, 4.0000000000000000000000000, 4.0000000000000000000000000, 4.0000000000000000000000000, 4.0000000000000000000000000, 4.0000000000000000000000000
24.0000000000000000000000000, 0.0000000000000000000000000, 4196.9228515625000000000000000, 4195.3842773437500000000000000, 4198.9741210937500000000000000, 4211.2817382812500000000000000, 4203.0766601562500000000000000, 4189.2304687500000000000000000, 4197.4360351562500000000000000, 4193.3330078125000000000000000, 4224.6152343750000000000000000, 4192.3076171875000000000000000, 4191.2817382812500000000000000, 4213.8461914062500000000000000, 4183.5898437500000000000000000, 4187.6923828125000000000000000, 0.0000000000000000000000000, 2042.0000000000000000000000000, 2029.0000000000000000000000000, 0.0000000000000000000000000, 0.0000000000000000000000000, 0.0000000000000000000000000, 179.0000000000000000000000000, 815.3845825195312500000000000, 4.0000000000000000000000000, 4.0000000000000000000000000, 4.0000000000000000000000000, 4.0000000000000000000000000, 4.0000000000000000000000000, 4.0000000000000000000000000, 4.0000000000000000000000000, 4.0000000000000000000000000, 4.0000000000000000000000000, 4.0000000000000000000000000, 4.0000000000000000000000000, 4.0000000000000000000000000, 4.0000000000000000000000000, 4.0000000000000000000000000, 4.0000000000000000000000000, 4.0000000000000000000000000
25.0000000000000000000000000, 0.0000000000000000000000000, 4204.6152343750000000000000000, 4200.5126953125000000000000000, 4203.5898437500000000000000000, 4204.1025390625000000000000000, 4195.3842773437500000000000000, 4184.6152343750000000000000000, 4193.3330078125000000000000000, 4193.8461914062500000000000000, 4220.5126953125000000000000000, 4200.5126953125000000000000000, 4197.4360351562500000000000000, 4205.1279296875000000000000000, 4187.1791992187500000000000000, 4196.9228515625000000000000000, 0.0000000000000000000000000, 2042.0000000000000000000000000, 2031.0000000000000000000000000, 0.0000000000000000000000000, 0.0000000000000000000000000, 0.0000000000000000000000000, 179.0000000000000000000000000, 823.0769042968750000000000000, 4.0000000000000000000000000, 4.0000000000000000000000000, 4.0000000000000000000000000, 4.0000000000000000000000000, 4.0000000000000000000000000, 4.0000000000000000000000000, 4.0000000000000000000000000, 4.0000000000000000000000000, 4.0000000000000000000000000, 4.0000000000000000000000000, 4.0000000000000000000000000, 4.0000000000000000000000000, 4.0000000000000000000000000, 4.0000000000000000000000000, 4.0000000000000000000000000, 4.0000000000000000000000000
26.0000000000000000000000000, 0.0000000000000000000000000, 4202.0512695312500000000000000, 4199.4873046875000000000000000, 4203.0766601562500000000000000, 4209.7436523437500000000000000, 4194.8715820312500000000000000, 4184.6152343750000000000000000, 4194.8715820312500000000000000, 4197.4360351562500000000000000, 4219.4873046875000000000000000, 4193.3330078125000000000000000, 4195.8974609375000000000000000, 4203.0766601562500000000000000, 4186.6665039062500000000000000, 4194.3588867187500000000000000, 0.0000000000000000000000000, 2039.0000000000000000000000000, 2033.0000000000000000000000000, 0.0000000000000000000000000, 0.0000000000000000000000000, 0.0000000000000000000000000, 179.0000000000000000000000000, 831.2820434570312500000000000, 4.0000000000000000000000000, 4.0000000000000000000000000, 4.0000000000000000000000000, 4.0000000000000000000000000, 4.0000000000000000000000000, 4.0000000000000000000000000, 4.0000000000000000000000000, 4.0000000000000000000000000, 4.0000000000000000000000000, 4.0000000000000000000000000, 4.0000000000000000000000000, 4.0000000000000000000000000, 4.0000000000000000000000000, 4.0000000000000000000000000, 4.0000000000000000000000000, 4.0000000000000000000000000
27.0000000000000000000000000, 0.0000000000000000000000000, 4190.2563476562500000000000000, 4191.2817382812500000000000000, 4200.0000000000000000000000000, 4222.0512695312500000000000000, 4191.7949218750000000000000000, 4181.0253906250000000000000000, 4191.2817382812500000000000000, 4190.2563476562500000000000000, 4230.2563476562500000000000000, 4177.9487304687500000000000000, 4185.1279296875000000000000000, 4212.3076171875000000000000000, 4176.4101562500000000000000000, 4183.0766601562500000000000000, 0.0000000000000000000000000, 2040.0000000000000000000000000, 2030.0000000000000000000000000, 0.0000000000000000000000000, 0.0000000000000000000000000, 0.0000000000000000000000000, 179.0000000000000000000000000, 838.9743652343750000000000000, 4.0000000000000000000000000, 4.0000000000000000000000000, 4.0000000000000000000000000, 4.0000000000000000000000000, 4.0000000000000000000000000, 4.0000000000000000000000000, 4.0000000000000000000000000, 4.0000000000000000000000000, 4.0000000000000000000000000, 4.0000000000000000000000000, 4.0000000000000000000000000, 4.0000000000000000000000000, 4.0000000000000000000000000, 4.0000000000000000000000000, 4.0000000000000000000000000, 4.0000000000000000000000000
28.0000000000000000000000000, 0.0000000000000000000000000, 4185.6411132812500000000000000, 4188.7177734375000000000000000, 4189.2304687500000000000000000, 4222.5639648437500000000000000, 4186.6665039062500000000000000, 4175.3842773437500000000000000, 4182.5639648437500000000000000, 4183.0766601562500000000000000, 4233.3330078125000000000000000, 4180.0000000000000000000000000, 4183.5898437500000000000000000, 4219.4873046875000000000000000, 4173.3330078125000000000000000, 4183.0766601562500000000000000, 0.0000000000000000000000000, 2040.0000000000000000000000000, 2028.0000000000000000000000000, 0.0000000000000000000000000, 0.0000000000000000000000000, 0.0000000000000000000000000, 179.0000000000000000000000000, 847.1794433593750000000000000, 4.0000000000000000000000000, 4.0000000000000000000000000, 4.0000000000000000000000000, 4.0000000000000000000000000, 4.0000000000000000000000000, 4.0000000000000000000000000, 4.0000000000000000000000000, 4.0000000000000000000000000, 4.0000000000000000000000000, 4.0000000000000000000000000, 4.0000000000000000000000000, 4.0000000000000000000000000, 4.0000000000000000000000000, 4.0000000000000000000000000, 4.0000000000000000000000000, 4.0000000000000000000000000
29.0000000000000000000000000, 0.0000000000000000000000000, 4191.2817382812500000000000000, 4190.2563476562500000000000000, 4193.8461914062500000000000000, 4214.3588867187500000000000000, 4179.4873046875000000000000000, 4176.4101562500000000000000000, 4183.5898437500000000000000000, 4186.1538085937500000000000000, 4228.2050781250000000000000000, 4184.6152343750000000000000000, 4189.7436523437500000000000000, 4211.2817382812500000000000000, 4173.8461914062500000000000000, 4188.7177734375000000000000000, 0.0000000000000000000000000, 2041.0000000000000000000000000, 2029.0000000000000000000000000, 0.0000000000000000000000000, 0.0000000000000000000000000, 0.0000000000000000000000000, 179.0000000000000000000000000, 854.8717651367187500000000000, 4.0000000000000000000000000, 4.0000000000000000000000000, 4.0000000000000000000000000, 4.0000000000000000000000000, 4.0000000000000000000000000, 4.0000000000000000000000000, 4.0000000000000000000000000, 4.0000000000000000000000000, 4.0000000000000000000000000, 4.0000000000000000000000000, 4.0000000000000000000000000, 4.0000000000000000000000000, 4.0000000000000000000000000, 4.0000000000000000000000000, 4.0000000000000000000000000, 4.0000000000000000000000000
30.0000000000000000000000000, 0.0000000000000000000000000, 4186.1538085937500000000000000, 4187.1791992187500000000000000, 4187.1791992187500000000000000, 4219.4873046875000000000000000, 4177.9487304687500000000000000, 4172.3076171875000000000000000, 4180.0000000000000000000000000, 4188.7177734375000000000000000, 4226.6665039062500000000000000, 4183.5898437500000000000000000, 4187.6923828125000000000000000, 4218.4614257812500000000000000, 4171.2817382812500000000000000, 4176.4101562500000000000000000, 0.0000000000000000000000000, 2042.0000000000000000000000000, 2030.0000000000000000000000000, 0.0000000000000000000000000, 0.0000000000000000000000000, 0.0000000000000000000000000, 179.0000000000000000000000000, 863.0769042968750000000000000, 4.0000000000000000000000000, 4.0000000000000000000000000, 4.0000000000000000000000000, 4.0000000000000000000000000, 4.0000000000000000000000000, 4.0000000000000000000000000, 4.0000000000000000000000000, 4.0000000000000000000000000, 4.0000000000000000000000000, 4.0000000000000000000000000, 4.0000000000000000000000000, 4.0000000000000000000000000, 4.0000000000000000000000000, 4.0000000000000000000000000, 4.0000000000000000000000000, 4.0000000000000000000000000
31.0000000000000000000000000, 0.0000000000000000000000000, 4173.3330078125000000000000000, 4177.4360351562500000000000000, 4174.3588867187500000000000000, 4231.7949218750000000000000000, 4183.0766601562500000000000000, 4167.1791992187500000000000000, 4176.9228515625000000000000000, 4183.5898437500000000000000000, 4231.2817382812500000000000000, 4181.5385742187500000000000000, 4176.4101562500000000000000000, 4233.8461914062500000000000000, 4165.1279296875000000000000000, 4158.4614257812500000000000000, 0.0000000000000000000000000, 2041.0000000000000000000000000, 2030.0000000000000000000000000, 0.0000000000000000000000000, 0.0000000000000000000000000, 0.0000000000000000000000000, 179.0000000000000000000000000, 871.2820434570312500000000000, 4.0000000000000000000000000, 4.0000000000000000000000000, 4.0000000000000000000000000, 4.0000000000000000000000000, 4.0000000000000000000000000, 4.0000000000000000000000000, 4.0000000000000000000000000, 4.0000000000000000000000000, 4.0000000000000000000000000, 4.0000000000000000000000000, 4.0000000000000000000000000, 4.0000000000000000000000000, 4.0000000000000000000000000, 4.0000000000000000000000000, 4.0000000000000000000000000, 4.0000000000000000000000000
32.0000000000000000000000000, 0.0000000000000000000000000, 4174.8715820312500000000000000, 4174.8715820312500000000000000, 4177.9487304687500000000000000, 4229.2304687500000000000000000, 4187.1791992187500000000000000, 4173.3330078125000000000000000, 4180.5126953125000000000000000, 4183.5898437500000000000000000, 4230.7690429687500000000000000, 4185.6411132812500000000000000, 4177.9487304687500000000000000, 4228.7177734375000000000000000, 4168.2050781250000000000000000, 4164.1025390625000000000000000, 0.0000000000000000000000000, 2042.0000000000000000000000000, 2032.0000000000000000000000000, 0.0000000000000000000000000, 0.0000000000000000000000000, 0.0000000000000000000000000, 179.0000000000000000000000000, 878.9743652343750000000000000, 4.0000000000000000000000000, 4.0000000000000000000000000, 4.0000000000000000000000000, 4.0000000000000000000000000, 4.0000000000000000000000000, 4.0000000000000000000000000, 4.0000000000000000000000000, 4.0000000000000000000000000, 4.0000000000000000000000000, 4.0000000000000000000000000, 4.0000000000000000000000000, 4.0000000000000000000000000, 4.0000000000000000000000000, 4.0000000000000000000000000, 4.0000000000000000000000000, 4.0000000000000000000000000
33.0000000000000000000000000, 0.0000000000000000000000000, 4174.8715820312500000000000000, 4177.4360351562500000000000000, 4169.2304687500000000000000000, 4232.3076171875000000000000000, 4180.5126953125000000000000000, 4172.8203125000000000000000000, 4180.0000000000000000000000000, 4185.1279296875000000000000000, 4226.1538085937500000000000000, 4186.1538085937500000000000000, 4183.5898437500000000000000000, 4231.7949218750000000000000000, 4171.7949218750000000000000000, 4169.2304687500000000000000000, 0.0000000000000000000000000, 2039.0000000000000000000000000, 2030.0000000000000000000000000, 0.0000000000000000000000000, 0.0000000000000000000000000, 0.0000000000000000000000000, 179.0000000000000000000000000, 887.1794433593750000000000000, 4.0000000000000000000000000, 4.0000000000000000000000000, 4.0000000000000000000000000, 4.0000000000000000000000000, 4.0000000000000000000000000, 4.0000000000000000000000000, 4.0000000000000000000000000, 4.0000000000000000000000000, 4.0000000000000000000000000, 4.0000000000000000000000000, 4.0000000000000000000000000, 4.0000000000000000000000000, 4.0000000000000000000000000, 4.0000000000000000000000000, 4.0000000000000000000000000, 4.0000000000000000000000000
34.0000000000000000000000000, 0.0000000000000000000000000, 4171.2817382812500000000000000, 4174.8715820312500000000000000, 4170.7690429687500000000000000, 4239.4873046875000000000000000, 4171.7949218750000000000000000, 4169.2304687500000000000000000, 4182.5639648437500000000000000, 4176.9228515625000000000000000, 4232.3076171875000000000000000, 4171.2817382812500000000000000, 4174.8715820312500000000000000, 4236.9228515625000000000000000, 4165.6411132812500000000000000, 4162.5639648437500000000000000, 0.0000000000000000000000000, 2040.0000000000000000000000000, 2029.0000000000000000000000000, 0.0000000000000000000000000, 0.0000000000000000000000000, 0.0000000000000000000000000, 179.0000000000000000000000000, 894.8717651367187500000000000, 4.0000000000000000000000000, 4.0000000000000000000000000, 4.0000000000000000000000000, 4.0000000000000000000000000, 4.0000000000000000000000000, 4.0000000000000000000000000, 4.0000000000000000000000000, 4.0000000000000000000000000, 4.0000000000000000000000000, 4.0000000000000000000000000, 4.0000000000000000000000000, 4.0000000000000000000000000, 4.0000000000000000000000000, 4.0000000000000000000000000, 4.0000000000000000000000000, 4.0000000000000000000000000
35.0000000000000000000000000, 0.0000000000000000000000000, 4170.7690429687500000000000000, 4172.8203125000000000000000000, 4178.9741210937500000000000000, 4234.8715820312500000000000000, 4175.8974609375000000000000000, 4172.8203125000000000000000000, 4183.5898437500000000000000000, 4174.3588867187500000000000000, 4238.4614257812500000000000000, 4166.1538085937500000000000000, 4169.7436523437500000000000000, 4231.2817382812500000000000000, 4160.0000000000000000000000000, 4162.0512695312500000000000000, 0.0000000000000000000000000, 2039.0000000000000000000000000, 2030.0000000000000000000000000, 0.0000000000000000000000000, 0.0000000000000000000000000, 0.0000000000000000000000000, 179.0000000000000000000000000, 903.0769042968750000000000000, 4.0000000000000000000000000, 4.0000000000000000000000000, 4.0000000000000000000000000, 4.0000000000000000000000000, 4.0000000000000000000000000, 4.0000000000000000000000000, 4.0000000000000000000000000, 4.0000000000000000000000000, 4.0000000000000000000000000, 4.0000000000000000000000000, 4.0000000000000000000000000, 4.0000000000000000000000000, 4.0000000000000000000000000, 4.0000000000000000000000000, 4.0000000000000000000000000, 4.0000000000000000000000000
36.0000000000000000000000000, 0.0000000000000000000000000, 4167.1791992187500000000000000, 4171.2817382812500000000000000, 4176.9228515625000000000000000, 4228.7177734375000000000000000, 4175.3842773437500000000000000, 4172.8203125000000000000000000, 4181.0253906250000000000000000, 4174.3588867187500000000000000, 4242.0512695312500000000000000, 4171.2817382812500000000000000, 4171.2817382812500000000000000, 4233.3330078125000000000000000, 4155.3842773437500000000000000, 4160.0000000000000000000000000, 0.0000000000000000000000000, 2040.0000000000000000000000000, 2030.0000000000000000000000000, 0.0000000000000000000000000, 0.0000000000000000000000000, 0.0000000000000000000000000, 179.0000000000000000000000000, 910.7692260742187500000000000, 4.0000000000000000000000000, 4.0000000000000000000000000, 4.0000000000000000000000000, 4.0000000000000000000000000, 4.0000000000000000000000000, 4.0000000000000000000000000, 4.0000000000000000000000000, 4.0000000000000000000000000, 4.0000000000000000000000000, 4.0000000000000000000000000, 4.0000000000000000000000000, 4.0000000000000000000000000, 4.0000000000000000000000000, 4.0000000000000000000000000, 4.0000000000000000000000000, 4.0000000000000000000000000
37.0000000000000000000000000, 0.0000000000000000000000000, 4171.7949218750000000000000000, 4171.7949218750000000000000000, 4180.0000000000000000000000000, 4225.1279296875000000000000000, 4174.3588867187500000000000000, 4170.7690429687500000000000000, 4181.5385742187500000000000000, 4169.7436523437500000000000000, 4243.5898437500000000000000000, 4172.3076171875000000000000000, 4174.8715820312500000000000000, 4229.2304687500000000000000000, 4160.5126953125000000000000000, 4162.5639648437500000000000000, 0.0000000000000000000000000, 2041.0000000000000000000000000, 2030.0000000000000000000000000, 0.0000000000000000000000000, 0.0000000000000000000000000, 0.0000000000000000000000000, 179.0000000000000000000000000, 918.9743652343750000000000000, 4.0000000000000000000000000, 4.0000000000000000000000000, 4.0000000000000000000000000, 4.0000000000000000000000000, 4.0000000000000000000000000, 4.0000000000000000000000000, 4.0000000000000000000000000, 4.0000000000000000000000000, 4.0000000000000000000000000, 4.0000000000000000000000000, 4.0000000000000000000000000, 4.0000000000000000000000000, 4.0000000000000000000000000, 4.0000000000000000000000000, 4.0000000000000000000000000, 4.0000000000000000000000000
38.0000000000000000000000000, 0.0000000000000000000000000, 4177.9487304687500000000000000, 4175.8974609375000000000000000, 4175.3842773437500000000000000, 4228.2050781250000000000000000, 4185.1279296875000000000000000, 4171.2817382812500000000000000, 4183.0766601562500000000000000, 4175.8974609375000000000000000, 4238.9741210937500000000000000, 4175.3842773437500000000000000, 4180.5126953125000000000000000, 4222.0512695312500000000000000, 4172.8203125000000000000000000, 4172.3076171875000000000000000, 0.0000000000000000000000000, 2043.0000000000000000000000000, 2030.0000000000000000000000000, 0.0000000000000000000000000, 0.0000000000000000000000000, 0.0000000000000000000000000, 179.0000000000000000000000000, 926.6666259765625000000000000, 4.0000000000000000000000000, 4.0000000000000000000000000, 4.0000000000000000000000000, 4.0000000000000000000000000, 4.0000000000000000000000000, 4.0000000000000000000000000, 4.0000000000000000000000000, 4.0000000000000000000000000, 4.0000000000000000000000000, 4.0000000000000000000000000, 4.0000000000000000000000000, 4.0000000000000000000000000, 4.0000000000000000000000000, 4.0000000000000000000000000, 4.0000000000000000000000000, 4.0000000000000000000000000
39.0000000000000000000000000, 0.0000000000000000000000000, 4171.7949218750000000000000000, 4173.3330078125000000000000000, 4175.8974609375000000000000000, 4232.3076171875000000000000000, 4183.0766601562500000000000000, 4171.2817382812500000000000000, 4185.1279296875000000000000000, 4181.0253906250000000000000000, 4241.5385742187500000000000000, 4172.8203125000000000000000000, 4177.9487304687500000000000000, 4224.6152343750000000000000000, 4168.2050781250000000000000000, 4168.7177734375000000000000000, 0.0000000000000000000000000, 2040.0000000000000000000000000, 2027.0000000000000000000000000, 0.0000000000000000000000000, 0.0000000000000000000000000, 0.0000000000000000000000000, 179.0000000000000000000000000, 934.8717651367187500000000000, 4.0000000000000000000000000, 4.0000000000000000000000000, 4.0000000000000000000000000, 4.0000000000000000000000000, 4.0000000000000000000000000, 4.0000000000000000000000000, 4.0000000000000000000000000, 4.0000000000000000000000000, 4.0000000000000000000000000, 4.0000000000000000000000000, 4.0000000000000000000000000, 4.0000000000000000000000000, 4.0000000000000000000000000, 4.0000000000000000000000000, 4.0000000000000000000000000, 4.0000000000000000000000000
40.0000000000000000000000000, 0.0000000000000000000000000, 4165.6411132812500000000000000, 4166.1538085937500000000000000, 4169.7436523437500000000000000, 4235.3842773437500000000000000, 4169.2304687500000000000000000, 4166.1538085937500000000000000, 4181.5385742187500000000000000, 4176.9228515625000000000000000, 4246.1538085937500000000000000, 4165.6411132812500000000000000, 4171.7949218750000000000000000, 4231.7949218750000000000000000, 4161.0253906250000000000000000, 4158.9741210937500000000000000, 0.0000000000000000000000000, 2040.0000000000000000000000000, 2029.0000000000000000000000000, 0.0000000000000000000000000, 0.0000000000000000000000000, 0.0000000000000000000000000, 179.0000000000000000000000000, 942.5640869140625000000000000, 4.0000000000000000000000000, 4.0000000000000000000000000, 4.0000000000000000000000000, 4.0000000000000000000000000, 4.0000000000000000000000000, 4.0000000000000000000000000, 4.0000000000000000000000000, 4.0000000000000000000000000, 4.0000000000000000000000000, 4.0000000000000000000000000, 4.0000000000000000000000000, 4.0000000000000000000000000, 4.0000000000000000000000000, 4.0000000000000000000000000, 4.0000000000000000000000000, 4.0000000000000000000000000
41.0000000000000000000000000, 0.0000000000000000000000000, 4170.7690429687500000000000000, 4169.2304687500000000000000000, 4164.1025390625000000000000000, 4240.5126953125000000000000000, 4172.3076171875000000000000000, 4166.6665039062500000000000000, 4182.5639648437500000000000000, 4175.3842773437500000000000000, 4243.5898437500000000000000000, 4169.2304687500000000000000000, 4174.3588867187500000000000000, 4232.3076171875000000000000000, 4167.1791992187500000000000000, 4163.0766601562500000000000000, 0.0000000000000000000000000, 2042.0000000000000000000000000, 2030.0000000000000000000000000, 0.0000000000000000000000000, 0.0000000000000000000000000, 0.0000000000000000000000000, 179.0000000000000000000000000, 950.7692260742187500000000000, 4.0000000000000000000000000, 4.0000000000000000000000000, 4.0000000000000000000000000, 4.0000000000000000000000000, 4.0000000000000000000000000, 4.0000000000000000000000000, 4.0000000000000000000000000, 4.0000000000000000000000000, 4.0000000000000000000000000, 4.0000000000000000000000000, 4.0000000000000000000000000, 4.0000000000000000000000000, 4.0000000000000000000000000, 4.0000000000000000000000000, 4.0000000000000000000000000, 4.0000000000000000000000000
42.0000000000000000000000000, 0.0000000000000000000000000, 4184.6152343750000000000000000, 4181.5385742187500000000000000, 4183.0766601562500000000000000, 4230.2563476562500000000000000, 4185.6411132812500000000000000, 4174.8715820312500000000000000, 4188.2050781250000000000000000, 4179.4873046875000000000000000, 4234.8715820312500000000000000, 4184.1025390625000000000000000, 4184.6152343750000000000000000, 4217.9487304687500000000000000, 4175.3842773437500000000000000, 4175.8974609375000000000000000, 0.0000000000000000000000000, 2039.0000000000000000000000000, 2029.0000000000000000000000000, 0.0000000000000000000000000, 0.0000000000000000000000000, 0.0000000000000000000000000, 179.0000000000000000000000000, 958.4614868164062500000000000, 4.0000000000000000000000000, 4.0000000000000000000000000, 4.0000000000000000000000000, 4.0000000000000000000000000, 4.0000000000000000000000000, 4.0000000000000000000000000, 4.0000000000000000000000000, 4.0000000000000000000000000, 4.0000000000000000000000000, 4.0000000000000000000000000, 4.0000000000000000000000000, 4.0000000000000000000000000, 4.0000000000000000000000000, 4.0000000000000000000000000, 4.0000000000000000000000000, 4.0000000000000000000000000
43.0000000000000000000000000, 0.0000000000000000000000000, 4189.2304687500000000000000000, 4188.7177734375000000000000000, 4186.1538085937500000000000000, 4216.4101562500000000000000000, 4190.2563476562500000000000000, 4177.4360351562500000000000000, 4187.6923828125000000000000000, 4182.0512695312500000000000000, 4229.7436523437500000000000000, 4192.8203125000000000000000000, 4187.6923828125000000000000000, 4211.7949218750000000000000000, 4178.4614257812500000000000000, 4183.0766601562500000000000000, 0.0000000000000000000000000, 2041.0000000000000000000000000, 2032.0000000000000000000000000, 0.0000000000000000000000000, 0.0000000000000000000000000, 0.0000000000000000000000000, 179.0000000000000000000000000, 966.6666259765625000000000000, 4.0000000000000000000000000, 4.0000000000000000000000000, 4.0000000000000000000000000, 4.0000000000000000000000000, 4.0000000000000000000000000, 4.0000000000000000000000000, 4.0000000000000000000000000, 4.0000000000000000000000000, 4.0000000000000000000000000, 4.0000000000000000000000000, 4.0000000000000000000000000, 4.0000000000000000000000000, 4.0000000000000000000000000, 4.0000000000000000000000000, 4.0000000000000000000000000, 4.0000000000000000000000000
44.0000000000000000000000000, 0.0000000000000000000000000, 4180.5126953125000000000000000, 4178.9741210937500000000000000, 4181.0253906250000000000000000, 4221.5385742187500000000000000, 4180.5126953125000000000000000, 4174.8715820312500000000000000, 4184.1025390625000000000000000, 4174.8715820312500000000000000, 4240.5126953125000000000000000, 4175.3842773437500000000000000, 4175.3842773437500000000000000, 4221.0253906250000000000000000, 4171.2817382812500000000000000, 4179.4873046875000000000000000, 0.0000000000000000000000000, 2039.0000000000000000000000000, 2031.0000000000000000000000000, 0.0000000000000000000000000, 0.0000000000000000000000000, 0.0000000000000000000000000, 179.0000000000000000000000000, 974.3589477539062500000000000, 4.0000000000000000000000000, 4.0000000000000000000000000, 4.0000000000000000000000000, 4.0000000000000000000000000, 4.0000000000000000000000000, 4.0000000000000000000000000, 4.0000000000000000000000000, 4.0000000000000000000000000, 4.0000000000000000000000000, 4.0000000000000000000000000, 4.0000000000000000000000000, 4.0000000000000000000000000, 4.0000000000000000000000000, 4.0000000000000000000000000, 4.0000000000000000000000000, 4.0000000000000000000000000
45.0000000000000000000000000, 0.0000000000000000000000000, 4172.8203125000000000000000000, 4170.7690429687500000000000000, 4176.9228515625000000000000000, 4233.3330078125000000000000000, 4176.4101562500000000000000000, 4169.7436523437500000000000000, 4175.3842773437500000000000000, 4170.2563476562500000000000000, 4246.6665039062500000000000000, 4164.1025390625000000000000000, 4172.8203125000000000000000000, 4230.7690429687500000000000000, 4169.2304687500000000000000000, 4174.8715820312500000000000000, 0.0000000000000000000000000, 2038.0000000000000000000000000, 2031.0000000000000000000000000, 0.0000000000000000000000000, 0.0000000000000000000000000, 0.0000000000000000000000000, 179.0000000000000000000000000, 982.5640869140625000000000000, 4.0000000000000000000000000, 4.0000000000000000000000000, 4.0000000000000000000000000, 4.0000000000000000000000000, 4.0000000000000000000000000, 4.0000000000000000000000000, 4.0000000000000000000000000, 4.0000000000000000000000000, 4.0000000000000000000000000, 4.0000000000000000000000000, 4.0000000000000000000000000, 4.0000000000000000000000000, 4.0000000000000000000000000, 4.0000000000000000000000000, 4.0000000000000000000000000, 4.0000000000000000000000000
