IED_COUNTER, IED_INTERPOLATED, IED_AF3, IED_F7, IED_F3, IED_FC5, IED_T7, IED_P7, IED_O1, IED_O2, IED_P8, IED_T8, IED_FC6, IED_F4, IED_F8, IED_AF4, IED_RAW_CQ, IED_GYROX, IED_GYROY, IED_MARKER, IED_TIMESTAMP 
119,0,3562.56,1024.62,7282.56,912.821,3809.23,4080.51,1285.13,4848.72,1175.9,3987.18,6710.77,0,1474.36,2050.77,15420,14201,1780,0,0.627,
81,0,3562.56,1024.62,7282.56,912.821,3809.23,4080.51,1285.13,4848.72,1175.9,3987.18,6710.77,0,1474.36,2050.77,15420,14201,1780,0,0.634816,
98,0,3562.56,1024.62,7282.56,912.821,3809.23,4080.51,1285.13,4848.72,1175.9,3987.18,6710.77,0,1474.36,2050.77,15420,14201,1780,0,0.767691,
58,0,3562.56,1024.62,7282.56,912.821,3809.23,4080.51,1285.13,4848.72,1175.9,3987.18,6710.77,0,1474.36,2050.77,15420,14201,1780,0,1.46333,
116,0,3562.56,1024.62,7282.56,912.821,3809.23,4080.51,1285.13,4848.72,1175.9,3987.18,6710.77,0,1474.36,2050.77,15420,14201,1780,0,1.91667,
237,0,3562.56,1024.62,7282.56,912.821,3809.23,4080.51,1285.13,4848.72,1175.9,3987.18,6710.77,0,1474.36,2050.77,15420,14201,1780,0,2.86242,
171,0,3562.56,1024.62,7282.56,912.821,3809.23,4080.51,1285.13,4848.72,1175.9,3987.18,6710.77,0,1474.36,2050.77,15420,14201,1780,0,3.35484,
205,0,3562.56,1024.62,7282.56,912.821,3809.23,4080.51,1285.13,4848.72,1175.9,3987.18,6710.77,0,1474.36,2050.77,15420,14201,1780,0,3.62059,
96,0,3562.56,1024.62,7282.56,912.821,3809.23,4080.51,1285.13,4848.72,1175.9,3987.18,6710.77,0,1474.36,2050.77,15420,14201,1780,0,3.77691,
192,0,3562.56,1024.62,7282.56,912.821,3809.23,4080.51,1285.13,4848.72,1175.9,3987.18,6710.77,0,1474.36,2050.77,15420,14201,1780,0,4.52727,
174,0,3562.56,1024.62,7282.56,912.821,3809.23,4080.51,1285.13,4848.72,1175.9,3987.18,6710.77,0,1474.36,2050.77,15420,14201,1780,0,5.39486,
82,0,5407.69,2685.38,2094.49,2049.23,7346.15,3724.23,956.667,3646.28,2296.03,8130.64,5462.69,81.6667,3352.18,6214.1,29128,14201,1780,0,5.68406,
11,0,21630.8,10741.5,8377.95,8196.92,29384.6,14896.9,3826.67,14585.1,9184.1,32522.6,21850.8,326.667,13408.7,24856.4,29128,14201,1780,0,6.1374,
60,0,21630.8,10741.5,8377.95,8196.92,29384.6,14896.9,3826.67,14585.1,9184.1,32522.6,21850.8,326.667,13408.7,24856.4,29128,14201,1780,0,6.52039,
220,0,21630.8,10741.5,8377.95,8196.92,29384.6,14896.9,3826.67,14585.1,9184.1,32522.6,21850.8,326.667,13408.7,24856.4,29128,14201,1780,0,7.77097,
245,0,21630.8,10741.5,8377.95,8196.92,29384.6,14896.9,3826.67,14585.1,9184.1,32522.6,21850.8,326.667,13408.7,24856.4,29128,14201,1780,0,7.96638,
15,0,21630.8,10741.5,8377.95,8196.92,29384.6,14896.9,3826.67,14585.1,9184.1,32522.6,21850.8,326.667,13408.7,24856.4,29128,14201,1780,0,7.17695,
117,0,21630.8,10741.5,8377.95,8196.92,29384.6,14896.9,3826.67,14585.1,9184.1,32522.6,21850.8,326.667,13408.7,24856.4,29128,14201,1780,0,7.97419,
252,0,21630.8,10741.5,8377.95,8196.92,29384.6,14896.9,3826.67,14585.1,9184.1,32522.6,21850.8,326.667,13408.7,24856.4,29128,14201,1780,0,9.02938,
235,0,21630.8,10741.5,8377.95,8196.92,29384.6,14896.9,3826.67,14585.1,9184.1,32522.6,21850.8,326.667,13408.7,24856.4,29128,14201,1780,0,9.90479,
77,0,21630.8,10741.5,8377.95,8196.92,29384.6,14896.9,3826.67,14585.1,9184.1,32522.6,21850.8,326.667,13408.7,24856.4,29128,14201,1780,0,9.67812,
66,0,21630.8,10741.5,8377.95,8196.92,29384.6,14896.9,3826.67,14585.1,9184.1,32522.6,21850.8,326.667,13408.7,24856.4,29128,14201,1780,0,10.6004,
209,0,21630.8,10741.5,8377.95,8196.92,29384.6,14896.9,3826.67,14585.1,9184.1,32522.6,21850.8,326.667,13408.7,24856.4,29128,14201,1780,0,11.718,
83,1,5379.87,2726.03,2141.54,2097.95,7274.1,3734.23,1029.49,3657.56,2337.82,8039.87,5432.82,173.718,3371.28,6167.31,28466,14201,1780,0,12.2303,
84,1,5352.05,2766.67,2188.59,2146.67,7202.05,3744.23,1102.31,3668.85,2379.62,7949.1,5402.95,265.769,3390.38,6120.51,27804,14201,1780,0,12.2342,
85,1,5324.23,2807.31,2235.64,2195.38,7130,3754.23,1175.13,3680.13,2421.41,7858.33,5373.08,357.821,3409.49,6073.72,27142,14201,1780,0,12.2381,
86,1,5296.41,2847.95,2282.69,2244.1,7057.95,3764.23,1247.95,3691.41,2463.21,7767.56,5343.21,449.872,3428.59,6026.92,26480,14201,1780,0,12.2421,
87,1,5268.59,2888.59,2329.74,2292.82,6985.9,3774.23,1320.77,3702.69,2505,7676.79,5313.33,541.923,3447.69,5980.13,25818,14201,1780,0,12.246,
88,1,5240.77,2929.23,2376.79,2341.54,6913.85,3784.23,1393.59,3713.97,2546.79,7586.03,5283.46,633.974,3466.79,5933.33,25156,14201,1780,0,12.25,
89,1,5212.95,2969.87,2423.85,2390.26,6841.79,3794.23,1466.41,3725.26,2588.59,7495.26,5253.59,726.026,3485.9,5886.54,24494,14201,1780,0,12.2539,
90,1,5185.13,3010.51,2470.9,2438.97,6769.74,3804.23,1539.23,3736.54,2630.38,7404.49,5223.72,818.077,3505,5839.74,23832,14201,1780,0,12.2578,
91,1,5157.31,3051.15,2517.95,2487.69,6697.69,3814.23,1612.05,3747.82,2672.18,7313.72,5193.85,910.128,3524.1,5792.95,23170,14201,1780,0,12.2618,
92,1,5129.49,3091.79,2565,2536.41,6625.64,3824.23,1684.87,3759.1,2713.97,7222.95,5163.97,1002.18,3543.21,5746.15,22508,14201,1780,0,12.2657,
93,1,5101.67,3132.44,2612.05,2585.13,6553.59,3834.23,1757.69,3770.38,2755.77,7132.18,5134.1,1094.23,3562.31,5699.36,21846,14201,1780,0,12.2697,
94,1,5073.85,3173.08,2659.1,2633.85,6481.54,3844.23,1830.51,3781.67,2797.56,7041.41,5104.23,1186.28,3581.41,5652.56,21184,14201,1780,0,12.2736,
95,1,5046.03,3213.72,2706.15,2682.56,6409.49,3854.23,1903.33,3792.95,2839.36,6950.64,5074.36,1278.33,3600.51,5605.77,20522,14201,1780,0,12.2775,
96,1,5018.21,3254.36,2753.21,2731.28,6337.44,3864.23,1976.15,3804.23,2881.15,6859.87,5044.49,1370.38,3619.62,5558.97,19860,14201,1780,0,12.2815,
97,1,4990.38,3295,2800.26,2780,6265.38,3874.23,2048.97,3815.51,2922.95,6769.1,5014.62,1462.44,3638.72,5512.18,19198,14201,1780,0,12.2854,
98,1,4962.56,3335.64,2847.31,2828.72,6193.33,3884.23,2121.79,3826.79,2964.74,6678.33,4984.74,1554.49,3657.82,5465.38,18536,14201,1780,0,12.2894,
99,1,4934.74,3376.28,2894.36,2877.44,6121.28,3894.23,2194.62,3838.08,3006.54,6587.56,4954.87,1646.54,3676.92,5418.59,17874,14201,1780,0,12.2933,
100,1,4906.92,3416.92,2941.41,2926.15,6049.23,3904.23,2267.44,3849.36,3048.33,6496.79,4925,1738.59,3696.03,5371.79,17212,14201,1780,0,12.2972,
101,1,4879.1,3457.56,2988.46,2974.87,5977.18,3914.23,2340.26,3860.64,3090.13,6406.03,4895.13,1830.64,3715.13,5325,16550,14201,1780,0,12.3012,
102,1,4851.28,3498.21,3035.51,3023.59,5905.13,3924.23,2413.08,3871.92,3131.92,6315.26,4865.26,1922.69,3734.23,5278.21,15888,14201,1780,0,12.3051,
103,1,4823.46,3538.85,3082.56,3072.31,5833.08,3934.23,2485.9,3883.21,3173.72,6224.49,4835.38,2014.74,3753.33,5231.41,15226,14201,1780,0,12.3091,
104,1,4795.64,3579.49,3129.62,3121.03,5761.03,3944.23,2558.72,3894.49,3215.51,6133.72,4805.51,2106.79,3772.44,5184.62,14564,14201,1780,0,12.313,
105,1,4767.82,3620.13,3176.67,3169.74,5688.97,3954.23,2631.54,3905.77,3257.31,6042.95,4775.64,2198.85,3791.54,5137.82,13902,14201,1780,0,12.3169,
106,1,4740,3660.77,3223.72,3218.46,5616.92,3964.23,2704.36,3917.05,3299.1,5952.18,4745.77,2290.9,3810.64,5091.03,13240,14201,1780,0,12.3209,
107,1,4712.18,3701.41,3270.77,3267.18,5544.87,3974.23,2777.18,3928.33,3340.9,5861.41,4715.9,2382.95,3829.74,5044.23,12578,14201,1780,0,12.3248,
108,1,4684.36,3742.05,3317.82,3315.9,5472.82,3984.23,2850,3939.62,3382.69,5770.64,4686.03,2475,3848.85,4997.44,11916,14201,1780,0,12.3288,
109,1,4656.54,3782.69,3364.87,3364.62,5400.77,3994.23,2922.82,3950.9,3424.49,5679.87,4656.15,2567.05,3867.95,4950.64,11254,14201,1780,0,12.3327,
110,1,4628.72,3823.33,3411.92,3413.33,5328.72,4004.23,2995.64,3962.18,3466.28,5589.1,4626.28,2659.1,3887.05,4903.85,10592,14201,1780,0,12.3366,
111,1,4600.9,3863.97,3458.97,3462.05,5256.67,4014.23,3068.46,3973.46,3508.08,5498.33,4596.41,2751.15,3906.15,4857.05,9930,14201,1780,0,12.3406,
112,1,4573.08,3904.62,3506.03,3510.77,5184.62,4024.23,3141.28,3984.74,3549.87,5407.56,4566.54,2843.21,3925.26,4810.26,9268,14201,1780,0,12.3445,
113,1,4545.26,3945.26,3553.08,3559.49,5112.56,4034.23,3214.1,3996.03,3591.67,5316.79,4536.67,2935.26,3944.36,4763.46,8606,14201,1780,0,12.3485,
114,1,4517.44,3985.9,3600.13,3608.21,5040.51,4044.23,3286.92,4007.31,3633.46,5226.03,4506.79,3027.31,3963.46,4716.67,7944,14201,1780,0,12.3524,
115,1,4489.62,4026.54,3647.18,3656.92,4968.46,4054.23,3359.74,4018.59,3675.26,5135.26,4476.92,3119.36,3982.56,4669.87,7282,14201,1780,0,12.3563,
116,1,4461.79,4067.18,3694.23,3705.64,4896.41,4064.23,3432.56,4029.87,3717.05,5044.49,4447.05,3211.41,4001.67,4623.08,6620,14201,1780,0,12.3603,
117,1,4433.97,4107.82,3741.28,3754.36,4824.36,4074.23,3505.38,4041.15,3758.85,4953.72,4417.18,3303.46,4020.77,4576.28,5958,14201,1780,0,12.3642,
118,1,4406.15,4148.46,3788.33,3803.08,4752.31,4084.23,3578.21,4052.44,3800.64,4862.95,4387.31,3395.51,4039.87,4529.49,5296,14201,1780,0,12.3682,
119,1,4378.33,4189.1,3835.38,3851.79,4680.26,4094.23,3651.03,4063.72,3842.44,4772.18,4357.44,3487.56,4058.97,4482.69,4634,14201,1780,0,12.3721,
120,1,4350.51,4229.74,3882.44,3900.51,4608.21,4104.23,3723.85,4075,3884.23,4681.41,4327.56,3579.62,4078.08,4435.9,3972,14201,1780,0,12.376,
121,1,4322.69,4270.38,3929.49,3949.23,4536.15,4114.23,3796.67,4086.28,3926.03,4590.64,4297.69,3671.67,4097.18,4389.1,3310,14201,1780,0,12.38,
122,1,4294.87,4311.03,3976.54,3997.95,4464.1,4124.23,3869.49,4097.56,3967.82,4499.87,4267.82,3763.72,4116.28,4342.31,2648,14201,1780,0,12.3839,
123,1,4267.05,4351.67,4023.59,4046.67,4392.05,4134.23,3942.31,4108.85,4009.62,4409.1,4237.95,3855.77,4135.38,4295.51,1986,14201,1780,0,12.3879,
124,1,4239.23,4392.31,4070.64,4095.38,4320,4144.23,4015.13,4120.13,4051.41,4318.33,4208.08,3947.82,4154.49,4248.72,1324,14201,1780,0,12.3918,
125,1,4211.41,4432.95,4117.69,4144.1,4247.95,4154.23,4087.95,4131.41,4093.21,4227.56,4178.21,4039.87,4173.59,4201.92,662,14201,1780,0,12.3957,
126,0,4180.13,4475.77,4167.82,4196.92,4175.64,4167.44,4165.51,4146.28,4138.33,4132.69,4144.49,4136.67,4198.21,4153.46,0,14201,1780,0,12.3997,
127,0,4181.54,4476.67,4168.21,4200.77,4176.54,4168.21,4166.92,4150.9,4138.72,4132.69,4143.33,4136.67,4198.33,4152.44,0,8202,8165,0,12.4036,
128,0,4184.23,4478.85,4171.03,4203.33,4180.64,4170,4170,4156.41,4142.44,4135.13,4143.21,4138.59,4200.13,4152.82,2376,8202,8165,0,12.4076,
129,0,4184.49,4479.74,4174.36,4202.05,4184.74,4171.92,4172.82,4159.1,4146.41,4137.44,4142.95,4140.26,4199.1,4153.97,3562,8193,8167,0,12.4115,
130,0,4180.51,4476.79,4175.13,4196.41,4185.51,4172.44,4173.59,4157.82,4147.18,4137.95,4141.67,4140.13,4193.46,4154.62,3511,8193,8167,0,12.4154,
131,0,4173.46,4470.38,4171.79,4188.85,4182.31,4171.15,4171.79,4154.74,4144.49,4136.54,4138.97,4137.95,4186.28,4153.59,3537,8197,8159,0,12.4194,
132,0,4167.31,4464.1,4166.92,4183.21,4177.05,4168.85,4168.33,4152.18,4141.54,4134.36,4135.64,4135.38,4182.44,4151.15,3494,8197,8159,0,12.4233,
133,0,4166.67,4461.79,4164.36,4182.82,4173.33,4167.05,4164.74,4151.67,4141.67,4133.46,4134.1,4134.23,4185,4149.62,3530,8188,8169,0,12.4273,
134,0,4173.21,4465.26,4166.54,4187.95,4173.85,4166.28,4162.05,4152.69,4145.9,4135,4136.03,4134.49,4192.31,4151.28,3430,8188,8169,0,12.4312,
135,0,4184.1,4472.95,4171.79,4196.41,4179.1,4166.67,4160.77,4154.49,4152.05,4138.97,4141.67,4135.77,4200.38,4156.54,2721,8185,8180,0,12.4351,
136,0,4194.23,4481.15,4176.54,4204.87,4186.79,4168.08,4160.64,4156.28,4156.15,4144.23,4148.85,4137.56,4205,4163.85,3422,8185,8180,0,12.4391,
137,0,4199.23,4485.51,4178.72,4209.62,4192.69,4170.13,4160.51,4157.44,4156.03,4149.1,4154.36,4140.26,4205.13,4170.26,3607,8185,8173,0,12.443,
138,0,4197.82,4483.46,4178.33,4209.36,4193.97,4172.05,4159.74,4157.82,4153.59,4152.31,4156.28,4143.85,4202.69,4173.21,3339,8185,8173,0,12.447,
139,0,4192.18,4476.15,4176.67,4205,4191.15,4172.31,4157.82,4157.31,4151.79,4153.72,4155.13,4147.44,4200.64,4172.31,3525,8179,8174,0,12.4509,
140,0,4186.15,4467.56,4175.26,4200,4186.92,4170.13,4155.38,4156.92,4152.31,4153.85,4152.95,4149.87,4200,4169.36,3577,8179,8174,0,12.4548,
141,0,4183.21,4461.54,4174.49,4197.56,4183.72,4166.03,4153.72,4157.05,4153.85,4152.95,4151.79,4150.51,4199.74,4167.31,3257,8183,8158,0,12.4588,
142,0,4183.85,4459.49,4175.26,4198.72,4182.18,4162.31,4153.33,4156.92,4153.72,4151.28,4152.05,4149.36,4198.72,4167.56,3339,8183,8158,0,12.4627,
143,0,4186.28,4459.62,4177.44,4201.15,4181.67,4161.15,4153.59,4155.64,4150.26,4148.59,4152.31,4147.05,4196.15,4169.36,3525,8183,8159,0,12.4667,
144,0,4187.56,4458.97,4179.74,4202.05,4181.92,4162.95,4153.72,4152.82,4143.85,4144.74,4151.15,4144.74,4192.31,4170,3577,8183,8159,0,12.4706,
145,0,4185.38,4455.77,4180,4199.87,4183.08,4166.41,4154.1,4150.26,4137.18,4140.38,4147.69,4142.69,4188.08,4167.69,3257,8186,8151,0,12.4745,
146,0,4180.13,4449.36,4177.05,4195.13,4184.87,4169.49,4155.38,4149.62,4133.08,4136.79,4142.95,4141.15,4183.33,4162.31,3339,8186,8151,0,12.4785,
147,0,4173.72,4440.9,4172.82,4189.87,4186.28,4170.64,4157.82,4152.18,4133.59,4135.26,4138.97,4139.62,4178.21,4156.03,3525,8182,8151,0,12.4824,
148,0,4169.1,4431.54,4170.9,4186.15,4185.51,4170.13,4160.51,4156.54,4138.59,4136.28,4137.05,4138.33,4173.46,4151.41,3577,8182,8151,0,12.4864,
149,0,4167.44,4422.82,4172.05,4184.74,4181.79,4168.97,4161.79,4159.74,4145.38,4138.46,4136.92,4137.44,4170,4149.62,3257,8184,8150,0,12.4903,
150,0,4167.95,4415.9,4174.36,4184.74,4177.31,4168.59,4160.64,4159.62,4150.64,4140,4137.18,4137.18,4168.33,4149.74,3339,8184,8150,0,12.4942,
151,0,4168.97,4410.77,4174.49,4185.13,4174.87,4169.62,4157.82,4156.41,4152.44,4139.49,4136.92,4137.18,4167.82,4150.77,3525,8182,8137,0,12.4982,
152,0,4169.36,4407.05,4171.79,4184.87,4176.79,4171.54,4155.38,4153.33,4151.41,4137.69,4136.79,4136.79,4167.44,4151.67,3577,8182,8137,0,12.5021,
153,0,4170.38,4404.36,4168.97,4184.49,4182.18,4172.56,4154.49,4152.69,4149.87,4137.18,4137.44,4136.03,4166.67,4152.31,3257,8189,8143,0,12.5061,
154,0,4173.21,4402.82,4168.72,4185.26,4187.69,4172.18,4154.87,4154.49,4149.87,4139.74,4139.23,4135.26,4166.67,4153.33,3339,8189,8143,0,12.51,
155,0,4177.82,4402.05,4171.28,4187.82,4190.77,4171.28,4155.9,4156.92,4151.54,4144.74,4141.54,4135.26,4167.95,4155,3525,8189,8150,0,12.5139,
156,0,4182.56,4400.9,4174.74,4191.67,4190.64,4171.92,4157.44,4158.46,4153.46,4150.13,4143.46,4136.54,4170,4156.54,3577,8189,8150,0,12.5179,
157,0,4185.51,4398.59,4176.67,4195.26,4188.97,4174.36,4159.87,4159.62,4154.49,4153.46,4144.23,4138.72,4170.9,4156.92,3257,8183,8153,0,12.5218,
158,0,4185.9,4395.26,4176.54,4197.56,4188.46,4176.79,4162.69,4161.15,4154.62,4154.1,4144.23,4140.51,4169.74,4155.77,3339,8183,8153,0,12.5258,
159,0,4184.74,4392.05,4175.13,4198.46,4190.77,4177.69,4164.62,4163.46,4155.77,4153.59,4145.13,4141.15,4167.82,4154.36,3525,8190,8159,0,12.5297,
160,0,4184.23,4390,4173.85,4198.97,4195,4177.05,4164.1,4166.03,4158.85,4154.36,4148.21,4141.67,4167.95,4154.74,3577,8190,8159,0,12.5336,
161,0,4185.51,4388.46,4173.72,4200.13,4199.1,4176.28,4161.41,4167.69,4163.59,4158.08,4153.08,4142.95,4172.31,4158.21,3257,8188,8159,0,12.5376,
162,0,4188.08,4386.15,4174.87,4201.41,4201.03,4176.41,4158.46,4167.31,4168.08,4164.36,4157.95,4145.64,4179.87,4163.59,3339,8188,8159,0,12.5415,
163,0,4190.13,4381.41,4177.31,4201.79,4200.13,4177.05,4157.18,4164.74,4169.62,4170.64,4161.03,4148.59,4186.79,4168.85,3525,8192,8169,0,12.5455,
164,0,4190.13,4373.72,4179.87,4200.64,4196.79,4177.18,4158.33,4160.9,4166.54,4173.33,4161.15,4150.13,4188.72,4171.67,3577,8192,8169,0,12.5494,
165,0,4188.21,4364.36,4180.38,4197.56,4191.67,4175.51,4160.26,4157.31,4160.13,4170.26,4158.97,4149.1,4184.62,4171.15,3257,8192,8180,0,12.5533,
166,0,4185.13,4354.74,4178.33,4193.21,4186.03,4172.69,4160.26,4155.26,4153.33,4161.79,4155.9,4145.64,4177.18,4167.95,3339,8192,8180,0,12.5573,
167,0,4182.44,4346.79,4174.87,4189.1,4182.44,4169.74,4157.69,4154.74,4147.95,4151.67,4152.69,4141.41,4170.38,4164.23,3525,8192,8193,0,12.5612,
168,0,4181.03,4341.79,4173.59,4187.05,4183.21,4167.95,4154.1,4154.74,4144.36,4143.97,4150.38,4138.72,4167.18,4162.05,3577,8192,8193,0,12.5652,
169,0,4181.41,4340.13,4176.03,4188.08,4187.95,4167.82,4152.56,4154.23,4142.18,4141.15,4149.23,4138.59,4167.95,4162.82,3257,8192,8191,0,12.5691,
170,0,4182.95,4340.9,4180.51,4191.41,4192.95,4168.59,4154.87,4153.21,4141.28,4142.95,4149.74,4140.38,4171.28,4165.9,3339,8192,8191,0,12.573,
171,0,4185,4342.18,4183.72,4195.51,4194.62,4169.36,4160,4152.56,4141.79,4147.18,4151.54,4142.05,4175,4169.62,3525,8198,8182,0,12.577,
172,0,4186.67,4342.18,4183.08,4198.33,4192.05,4169.74,4165.77,4152.82,4143.59,4151.54,4153.97,4143.08,4177.82,4172.31,3577,8198,8182,0,12.5809,
173,0,4187.69,4339.74,4180.13,4199.74,4188.08,4170.13,4169.87,4153.46,4145.77,4153.97,4155.77,4143.72,4178.85,4173.21,3257,8205,8189,0,12.5849,
174,0,4187.95,4334.87,4177.69,4199.62,4186.79,4171.15,4171.79,4153.85,4147.05,4154.1,4156.54,4144.49,4177.69,4172.44,3339,8205,8189,0,12.5888,
175,0,4187.69,4328.97,4177.31,4198.59,4189.87,4172.69,4172.31,4154.1,4146.79,4151.92,4156.41,4145.51,4175.26,4170.77,3525,8199,8188,0,12.5927,
176,0,4187.05,4323.59,4178.46,4196.92,4195.38,4173.33,4172.56,4154.62,4145,4148.08,4155.77,4146.67,4172.56,4169.1,3577,8199,8188,0,12.5967,
177,0,4186.67,4319.49,4179.49,4194.87,4199.23,4172.05,4172.69,4155.13,4142.69,4144.23,4155,4147.56,4171.41,4168.59,3257,8204,8180,0,12.6006,
178,0,4186.54,4316.15,4179.87,4192.44,4198.33,4170,4172.69,4155,4141.03,4141.79,4153.85,4147.44,4171.92,4169.74,3339,8204,8180,0,12.6046,
179,0,4186.54,4311.79,4180,4189.74,4193.21,4169.1,4172.56,4153.97,4140.64,4141.67,4152.31,4146.79,4172.31,4171.03,3525,8211,8181,0,12.6085,
180,0,4186.03,4305.9,4180.26,4187.44,4186.92,4170.26,4172.69,4153.08,4141.28,4142.82,4150.9,4146.54,4170.13,4170.38,3577,8211,8181,0,12.6124,
181,0,4185,4299.1,4180.26,4186.15,4182.95,4172.05,4173.59,4153.08,4142.05,4143.46,4150,4148.33,4164.1,4166.92,3257,8213,8169,0,12.6164,
182,0,4184.1,4293.59,4180,4185.77,4182.95,4172.56,4174.49,4154.23,4141.79,4142.69,4150,4151.92,4155.64,4162.31,3339,8213,8169,0,12.6203,
183,0,4183.85,4291.15,4179.87,4185.9,4186.03,4170.9,4174.49,4155.38,4140,4141.15,4150.77,4155,4148.72,4158.72,3525,8213,8158,0,12.6243,
184,0,4184.23,4291.54,4180.13,4186.28,4189.49,4168.46,4172.95,4155.26,4137.44,4140.77,4151.54,4155,4147.18,4158.21,3577,8213,8158,0,12.6282,
185,0,4185.13,4292.95,4180,4187.18,4191.79,4166.79,4171.03,4154.36,4136.28,4143.33,4152.05,4150.77,4152.56,4160.64,3257,8201,8155,0,12.6321,
186,0,4186.67,4293.59,4178.72,4189.1,4193.33,4167.18,4170.26,4154.23,4138.46,4148.72,4152.56,4144.23,4162.05,4164.87,3339,8201,8155,0,12.6361,
187,0,4188.21,4293.21,4176.54,4192.44,4194.87,4169.74,4171.54,4156.28,4143.85,4154.87,4153.33,4138.97,4170.38,4169.1,3525,8203,8154,0,12.64,
188,0,4189.49,4292.44,4175,4196.15,4196.41,4172.95,4174.23,4160.38,4150.13,4158.33,4153.97,4138.08,4173.08,4171.15,3577,8203,8154,0,12.644,
189,0,4190.77,4292.18,4176.15,4199.36,4197.44,4175.13,4175.77,4164.74,4154.49,4157.95,4154.74,4141.03,4169.23,4170,3257,8215,8144,0,12.6479,
190,0,4192.44,4292.18,4178.97,4201.03,4198.08,4175.26,4174.62,4166.67,4155.38,4155.38,4155.38,4145,4161.92,4166.54,3339,8215,8144,0,12.6518,
191,0,4193.85,4291.41,4181.15,4201.15,4199.36,4174.23,4171.28,4164.49,4153.59,4153.46,4155.26,4146.79,4156.03,4162.95,3525,8211,8147,0,12.6558,
192,0,4194.23,4288.72,4180.51,4200.26,4201.15,4173.59,4167.69,4159.36,4151.28,4153.59,4153.97,4145.9,4154.36,4161.03,3577,8211,8147,0,12.6597,
193,1,4193.97,4286.67,4180.51,4200,4201.03,4173.72,4167.82,4159.74,4151.67,4154.23,4154.62,4146.15,4155,4161.28,3577,8211,8147,0,12.6637,
194,1,4193.72,4284.62,4180.51,4199.74,4200.9,4173.85,4167.95,4160.13,4152.05,4154.87,4155.26,4146.41,4155.64,4161.54,3577,8211,8147,0,12.6676,
195,1,4193.46,4282.56,4180.51,4199.49,4200.77,4173.97,4168.08,4160.51,4152.44,4155.51,4155.9,4146.67,4156.28,4161.79,3577,8211,8147,0,12.6715,
196,1,4193.21,4280.51,4180.51,4199.23,4200.64,4174.1,4168.21,4160.9,4152.82,4156.15,4156.54,4146.92,4156.92,4162.05,3577,8211,8147,0,12.6755,
197,1,4192.95,4278.46,4180.51,4198.97,4200.51,4174.23,4168.33,4161.28,4153.21,4156.79,4157.18,4147.18,4157.56,4162.31,3577,8211,8147,0,12.6794,
198,1,4192.69,4276.41,4180.51,4198.72,4200.38,4174.36,4168.46,4161.67,4153.59,4157.44,4157.82,4147.44,4158.21,4162.56,3577,8211,8147,0,12.6834,
199,1,4192.44,4274.36,4180.51,4198.46,4200.26,4174.49,4168.59,4162.05,4153.97,4158.08,4158.46,4147.69,4158.85,4162.82,3577,8211,8147,0,12.6873,
200,1,4192.18,4272.31,4180.51,4198.21,4200.13,4174.62,4168.72,4162.44,4154.36,4158.72,4159.1,4147.95,4159.49,4163.08,3577,8211,8147,0,12.6912,
201,1,4191.92,4270.26,4180.51,4197.95,4200,4174.74,4168.85,4162.82,4154.74,4159.36,4159.74,4148.21,4160.13,4163.33,3577,8211,8147,0,12.6952,
202,1,4191.67,4268.21,4180.51,4197.69,4199.87,4174.87,4168.97,4163.21,4155.13,4160,4160.38,4148.46,4160.77,4163.59,3577,8211,8147,0,12.6991,
203,1,4191.41,4266.15,4180.51,4197.44,4199.74,4175,4169.1,4163.59,4155.51,4160.64,4161.03,4148.72,4161.41,4163.85,3577,8211,8147,0,12.7031,
204,1,4191.15,4264.1,4180.51,4197.18,4199.62,4175.13,4169.23,4163.97,4155.9,4161.28,4161.67,4148.97,4162.05,4164.1,3577,8211,8147,0,12.707,
205,1,4190.9,4262.05,4180.51,4196.92,4199.49,4175.26,4169.36,4164.36,4156.28,4161.92,4162.31,4149.23,4162.69,4164.36,3577,8211,8147,0,12.7109,
206,1,4190.64,4260,4180.51,4196.67,4199.36,4175.38,4169.49,4164.74,4156.67,4162.56,4162.95,4149.49,4163.33,4164.62,3577,8211,8147,0,12.7149,
207,1,4190.38,4257.95,4180.51,4196.41,4199.23,4175.51,4169.62,4165.13,4157.05,4163.21,4163.59,4149.74,4163.97,4164.87,3577,8211,8147,0,12.7188,
208,1,4190.13,4255.9,4180.51,4196.15,4199.1,4175.64,4169.74,4165.51,4157.44,4163.85,4164.23,4150,4164.62,4165.13,3577,8211,8147,0,12.7228,
209,1,4189.87,4253.85,4180.51,4195.9,4198.97,4175.77,4169.87,4165.9,4157.82,4164.49,4164.87,4150.26,4165.26,4165.38,3577,8211,8147,0,12.7267,
210,1,4189.62,4251.79,4180.51,4195.64,4198.85,4175.9,4170,4166.28,4158.21,4165.13,4165.51,4150.51,4165.9,4165.64,3577,8211,8147,0,12.7306,
211,1,4189.36,4249.74,4180.51,4195.38,4198.72,4176.03,4170.13,4166.67,4158.59,4165.77,4166.15,4150.77,4166.54,4165.9,3577,8211,8147,0,12.7346,
212,1,4189.1,4247.69,4180.51,4195.13,4198.59,4176.15,4170.26,4167.05,4158.97,4166.41,4166.79,4151.03,4167.18,4166.15,3577,8211,8147,0,12.7385,
213,1,4188.85,4245.64,4180.51,4194.87,4198.46,4176.28,4170.38,4167.44,4159.36,4167.05,4167.44,4151.28,4167.82,4166.41,3577,8211,8147,0,12.7425,
214,1,4188.59,4243.59,4180.51,4194.62,4198.33,4176.41,4170.51,4167.82,4159.74,4167.69,4168.08,4151.54,4168.46,4166.67,3577,8211,8147,0,12.7464,
215,1,4188.33,4241.54,4180.51,4194.36,4198.21,4176.54,4170.64,4168.21,4160.13,4168.33,4168.72,4151.79,4169.1,4166.92,3577,8211,8147,0,12.7503,
216,1,4188.08,4239.49,4180.51,4194.1,4198.08,4176.67,4170.77,4168.59,4160.51,4168.97,4169.36,4152.05,4169.74,4167.18,3577,8211,8147,0,12.7543,
217,1,4187.82,4237.44,4180.51,4193.85,4197.95,4176.79,4170.9,4168.97,4160.9,4169.62,4170,4152.31,4170.38,4167.44,3577,8211,8147,0,12.7582,
218,1,4187.56,4235.38,4180.51,4193.59,4197.82,4176.92,4171.03,4169.36,4161.28,4170.26,4170.64,4152.56,4171.03,4167.69,3577,8211,8147,0,12.7622,
219,1,4187.31,4233.33,4180.51,4193.33,4197.69,4177.05,4171.15,4169.74,4161.67,4170.9,4171.28,4152.82,4171.67,4167.95,3577,8211,8147,0,12.7661,
220,1,4187.05,4231.28,4180.51,4193.08,4197.56,4177.18,4171.28,4170.13,4162.05,4171.54,4171.92,4153.08,4172.31,4168.21,3577,8211,8147,0,12.77,
221,1,4186.79,4229.23,4180.51,4192.82,4197.44,4177.31,4171.41,4170.51,4162.44,4172.18,4172.56,4153.33,4172.95,4168.46,3577,8211,8147,0,12.774,
222,1,4186.54,4227.18,4180.51,4192.56,4197.31,4177.44,4171.54,4170.9,4162.82,4172.82,4173.21,4153.59,4173.59,4168.72,3577,8211,8147,0,12.7779,
223,1,4186.28,4225.13,4180.51,4192.31,4197.18,4177.56,4171.67,4171.28,4163.21,4173.46,4173.85,4153.85,4174.23,4168.97,3577,8211,8147,0,12.7819,
224,1,4186.03,4223.08,4180.51,4192.05,4197.05,4177.69,4171.79,4171.67,4163.59,4174.1,4174.49,4154.1,4174.87,4169.23,3577,8211,8147,0,12.7858,
225,1,4185.77,4221.03,4180.51,4191.79,4196.92,4177.82,4171.92,4172.05,4163.97,4174.74,4175.13,4154.36,4175.51,4169.49,3577,8211,8147,0,12.7897,
226,1,4185.51,4218.97,4180.51,4191.54,4196.79,4177.95,4172.05,4172.44,4164.36,4175.38,4175.77,4154.62,4176.15,4169.74,3577,8211,8147,0,12.7937,
227,1,4185.26,4216.92,4180.51,4191.28,4196.67,4178.08,4172.18,4172.82,4164.74,4176.03,4176.41,4154.87,4176.79,4170,3577,8211,8147,0,12.7976,
228,1,4185,4214.87,4180.51,4191.03,4196.54,4178.21,4172.31,4173.21,4165.13,4176.67,4177.05,4155.13,4177.44,4170.26,3577,8211,8147,0,12.8016,
229,1,4184.74,4212.82,4180.51,4190.77,4196.41,4178.33,4172.44,4173.59,4165.51,4177.31,4177.69,4155.38,4178.08,4170.51,3577,8211,8147,0,12.8055,
230,1,4184.49,4210.77,4180.51,4190.51,4196.28,4178.46,4172.56,4173.97,4165.9,4177.95,4178.33,4155.64,4178.72,4170.77,3577,8211,8147,0,12.8094,
231,1,4184.23,4208.72,4180.51,4190.26,4196.15,4178.59,4172.69,4174.36,4166.28,4178.59,4178.97,4155.9,4179.36,4171.03,3577,8211,8147,0,12.8134,
232,1,4183.97,4206.67,4180.51,4190,4196.03,4178.72,4172.82,4174.74,4166.67,4179.23,4179.62,4156.15,4180,4171.28,3577,8211,8147,0,12.8173,
233,1,4183.72,4204.62,4180.51,4189.74,4195.9,4178.85,4172.95,4175.13,4167.05,4179.87,4180.26,4156.41,4180.64,4171.54,3577,8211,8147,0,12.8213,
234,1,4183.46,4202.56,4180.51,4189.49,4195.77,4178.97,4173.08,4175.51,4167.44,4180.51,4180.9,4156.67,4181.28,4171.79,3577,8211,8147,0,12.8252,
235,1,4183.21,4200.51,4180.51,4189.23,4195.64,4179.1,4173.21,4175.9,4167.82,4181.15,4181.54,4156.92,4181.92,4172.05,3577,8211,8147,0,12.8291,
236,1,4182.95,4198.46,4180.51,4188.97,4195.51,4179.23,4173.33,4176.28,4168.21,4181.79,4182.18,4157.18,4182.56,4172.31,3577,8211,8147,0,12.8331,
237,1,4182.69,4196.41,4180.51,4188.72,4195.38,4179.36,4173.46,4176.67,4168.59,4182.44,4182.82,4157.44,4183.21,4172.56,3577,8211,8147,0,12.837,
238,1,4182.44,4194.36,4180.51,4188.46,4195.26,4179.49,4173.59,4177.05,4168.97,4183.08,4183.46,4157.69,4183.85,4172.82,3577,8211,8147,0,12.841,
239,1,4182.18,4192.31,4180.51,4188.21,4195.13,4179.62,4173.72,4177.44,4169.36,4183.72,4184.1,4157.95,4184.49,4173.08,3577,8211,8147,0,12.8449,
240,1,4181.92,4190.26,4180.51,4187.95,4195,4179.74,4173.85,4177.82,4169.74,4184.36,4184.74,4158.21,4185.13,4173.33,3577,8211,8147,0,12.8488,
241,1,4181.67,4188.21,4180.51,4187.69,4194.87,4179.87,4173.97,4178.21,4170.13,4185,4185.38,4158.46,4185.77,4173.59,3577,8211,8147,0,12.8528,
242,1,4181.41,4186.15,4180.51,4187.44,4194.74,4180,4174.1,4178.59,4170.51,4185.64,4186.03,4158.72,4186.41,4173.85,3577,8211,8147,0,12.8567,
243,1,4181.15,4184.1,4180.51,4187.18,4194.62,4180.13,4174.23,4178.97,4170.9,4186.28,4186.67,4158.97,4187.05,4174.1,3577,8211,8147,0,12.8607,
244,1,4180.9,4182.05,4180.51,4186.92,4194.49,4180.26,4174.36,4179.36,4171.28,4186.92,4187.31,4159.23,4187.69,4174.36,3577,8211,8147,0,12.8646,
245,1,4180.64,4180,4180.51,4186.67,4194.36,4180.38,4174.49,4179.74,4171.67,4187.56,4187.95,4159.49,4188.33,4174.62,3577,8211,8147,0,12.8685,
246,1,4180.38,4177.95,4180.51,4186.41,4194.23,4180.51,4174.62,4180.13,4172.05,4188.21,4188.59,4159.74,4188.97,4174.87,3577,8211,8147,0,12.8725,
247,0,4179.62,4173.97,4181.92,4183.21,4190.77,4187.31,4181.41,4180.9,4177.56,4193.97,4190.38,4166.41,4189.62,4175.26,3525,8211,8147,0,12.8764,
248,0,4179.62,4173.33,4181.28,4185.77,4197.31,4190.38,4188.21,4186.28,4183.08,4198.59,4190.51,4166.54,4188.59,4174.74,3577,8211,8147,0,12.8804,
249,0,4178.21,4172.31,4179.62,4186.67,4200.38,4190.13,4190.38,4188.97,4186.79,4201.15,4188.08,4162.31,4186.54,4174.23,3257,8178,8168,0,12.8843,
250,0,4174.62,4167.95,4178.21,4184.74,4197.95,4187.31,4188.08,4188.46,4188.21,4201.79,4185.38,4155.9,4184.1,4173.21,3339,8178,8168,0,12.8882,
251,0,4169.87,4159.36,4177.18,4180.38,4191.79,4184.1,4184.23,4186.03,4187.69,4201.15,4183.85,4151.28,4180.77,4171.54,3525,8165,8177,0,12.8922,
252,0,4166.67,4148.72,4176.15,4175.26,4185.51,4182.56,4181.41,4183.72,4186.28,4199.49,4183.85,4150.9,4176.79,4170,3577,8165,8177,0,12.8961,
253,0,4166.03,4139.74,4175.26,4171.54,4182.95,4183.08,4181.03,4183.33,4185.38,4198.08,4184.49,4154.36,4173.46,4168.85,3257,8166,8184,0,12.9001,
254,0,4167.18,4135.51,4175.38,4170.13,4184.87,4184.87,4182.56,4184.87,4185.38,4197.95,4185,4158.46,4172.05,4168.46,3339,8166,8184,0,12.904,
255,0,4168.21,4135.13,4177.05,4170.13,4188.85,4186.79,4184.49,4186.54,4185.9,4199.1,4185.13,4160.77,4172.69,4168.21,114,8170,8184,0,12.9079,
0,0,4168.33,4135.77,4179.49,4170.38,4190.9,4187.82,4185.77,4185.51,4186.41,4200.38,4185,4159.87,4174.1,4167.82,2370,8170,8184,0,12.9119,
1,0,4168.46,4135,4180.51,4170.38,4189.1,4187.31,4186.03,4181.28,4186.41,4200.13,4184.49,4156.92,4174.49,4167.82,3556,8179,8194,0,12.9158,
2,0,4170.13,4132.05,4179.36,4170.9,4185.38,4185.77,4185.26,4176.28,4186.28,4198.21,4183.85,4155.26,4173.85,4168.97,3503,8179,8194,0,12.9198,
3,0,4173.72,4128.85,4177.69,4172.95,4183.33,4184.36,4184.36,4173.33,4186.28,4195.64,4183.72,4157.31,4173.08,4172.56,3558,8175,8198,0,12.9237,
4,0,4178.72,4126.92,4177.95,4177.31,4185.26,4184.49,4184.1,4173.59,4186.54,4194.1,4184.74,4163.21,4172.82,4178.21,3493,8175,8198,0,12.9277,
5,0,4183.08,4126.92,4180.51,4182.82,4190.51,4186.03,4184.49,4176.28,4186.41,4194.36,4186.54,4170.13,4173.21,4183.72,3529,8180,8202,0,12.9316,
6,0,4185.64,4127.56,4183.72,4187.44,4195.9,4187.56,4185.26,4179.1,4185.64,4195.9,4187.69,4174.36,4173.46,4186.54,3430,8180,8202,0,12.9355,
7,0,4186.03,4127.18,4185.9,4188.97,4198.46,4187.69,4185.64,4180.13,4184.36,4197.82,4187.31,4173.85,4172.95,4185.51,2721,8182,8192,0,12.9395,
8,0,4185.51,4125.26,4186.79,4186.92,4197.44,4186.15,4185.38,4179.1,4183.21,4199.36,4185.77,4169.23,4171.92,4181.54,3421,8182,8192,0,12.9434,
9,0,4184.62,4122.31,4187.31,4182.56,4193.85,4183.97,4184.62,4177.95,4183.08,4200,4184.62,4163.59,4170.77,4176.92,3606,8194,8194,0,12.9474,
10,0,4182.82,4118.21,4186.92,4178.08,4189.62,4182.56,4182.82,4178.72,4183.97,4199.1,4185,4159.74,4168.97,4173.46,3516,8194,8194,0,12.9513,
11,0,4179.36,4112.56,4184.74,4174.87,4186.28,4182.44,4179.87,4181.79,4185.38,4196.67,4186.03,4158.33,4166.03,4171.67,3524,8191,8190,0,12.9552,
12,0,4174.23,4105.13,4180.13,4172.56,4184.74,4183.33,4176.92,4185.51,4186.03,4192.95,4185.51,4157.95,4161.54,4170.51,3578,8191,8190,0,12.9591,
13,0,4169.1,4097.05,4175,4170.77,4185,4184.23,4175.38,4187.56,4185.13,4189.49,4182.18,4156.67,4156.15,4169.23,3257,8191,8183,0,12.963,
14,0,4166.03,4090.77,4172.44,4169.49,4185.77,4184.62,4176.54,4186.67,4183.08,4187.69,4177.31,4154.1,4151.92,4167.95,3516,8191,8183,0,12.967,
15,0,4166.67,4088.21,4173.72,4169.23,4186.28,4183.97,4179.62,4183.85,4181.92,4188.21,4173.46,4151.54,4150.38,4167.05,3524,8201,8174,0,12.9709,
16,0,4169.87,4088.85,4177.05,4170.13,4186.15,4182.56,4182.69,4181.28,4182.44,4189.49,4172.95,4150.51,4151.67,4167.05,3578,8201,8174,0,12.9748,
17,0,4172.82,4090,4179.36,4171.03,4185.77,4180.77,4183.59,4181.15,4183.97,4190,4175.26,4151.92,4153.33,4167.69,3257,8201,8179,0,12.9788,
18,0,4173.46,4088.97,4178.72,4171.54,4185.77,4179.62,4181.67,4183.59,4184.49,4189.23,4178.33,4154.62,4153.08,4168.46,3516,8201,8179,0,12.9827,
19,0,4172.18,4085.77,4176.28,4171.67,4186.03,4179.49,4177.69,4185.9,4182.31,4187.69,4179.23,4157.05,4150.13,4168.97,3524,8204,8174,0,12.9867,
20,0,4171.03,4081.67,4173.97,4171.92,4186.28,4180.51,4173.21,4185.64,4177.69,4186.54,4176.92,4157.31,4145.77,4169.1,3578,8204,8174,0,12.9906,
21,0,4170.9,4078.85,4172.95,4172.05,4186.28,4181.79,4170,4182.44,4172.05,4185.64,4172.82,4155.51,4141.41,4168.72,3257,8206,8173,0,12.9945,
22,0,4171.15,4077.82,4173.08,4171.92,4186.28,4182.31,4168.85,4177.82,4167.31,4183.97,4169.49,4153.33,4137.56,4168.08,3516,8206,8173,0,12.9985,
23,0,4171.15,4077.95,4174.36,4171.79,4185.9,4181.15,4169.74,4173.85,4165,4180.77,4168.59,4152.56,4134.23,4167.69,3524,8204,8178,0,13.0024,
24,0,4171.28,4078.08,4176.03,4172.18,4185.26,4178.72,4172.18,4171.67,4165,4176.79,4169.62,4153.33,4131.15,4167.82,3578,8204,8178,0,13.0064,
25,0,4172.69,4077.31,4177.31,4173.59,4184.87,4177.31,4175.51,4171.15,4166.15,4173.59,4171.03,4154.62,4128.97,4168.59,3257,8205,8170,0,13.0103,
26,0,4175.13,4075.77,4177.18,4175.26,4185.38,4178.59,4179.36,4172.18,4167.05,4173.33,4171.79,4155.26,4128.72,4169.62,3516,8205,8170,0,13.0142,
27,0,4177.18,4074.1,4175.51,4176.41,4186.92,4182.44,4182.95,4173.21,4167.18,4176.54,4171.67,4155.26,4130.64,4170.77,3524,8216,8179,0,13.0182,
28,0,4177.44,4072.18,4173.97,4176.03,4188.46,4185.51,4185.26,4172.95,4166.67,4181.67,4171.67,4155.64,4133.85,4171.41,3578,8216,8179,0,13.0221,
29,0,4176.41,4069.23,4173.46,4174.23,4188.46,4184.62,4185.13,4170.9,4166.15,4185.38,4171.92,4156.41,4136.03,4171.03,3257,8216,8177,0,13.0261,
30,0,4175.13,4065.51,4174.23,4171.54,4186.67,4179.36,4182.44,4168.08,4166.03,4185.77,4171.92,4156.28,4136.03,4169.49,3516,8216,8177,0,13.03,
31,0,4175,4062.44,4175.26,4169.36,4183.85,4173.33,4180,4167.31,4166.54,4183.59,4171.79,4155.13,4134.1,4167.56,3524,8220,8163,0,13.0339,
32,0,4176.67,4061.67,4175.26,4168.85,4182.18,4170.64,4180.26,4170.51,4167.95,4181.92,4173.08,4154.36,4132.69,4167.18,0,8220,8163,0,13.0379,
33,0,4180,4063.85,4174.49,4170.51,4182.82,4173.33,4183.72,4177.18,4170.26,4183.72,4176.79,4155.38,4133.97,4169.23,0,8210,8168,0,13.0418,
34,0,4184.1,4068.08,4174.49,4173.46,4185.13,4178.72,4187.56,4184.1,4173.21,4188.72,4182.44,4158.46,4138.33,4172.95,0,8210,8168,0,13.0458,
35,0,4187.18,4072.44,4176.54,4176.15,4187.18,4182.56,4188.08,4187.31,4175.64,4193.97,4187.44,4161.92,4143.46,4176.67,0,8206,8172,0,13.0497,
36,0,4187.56,4074.36,4179.23,4176.79,4187.69,4181.67,4183.97,4185,4176.03,4195.77,4189.1,4163.33,4146.03,4178.33,0,8206,8172,0,13.0536,
37,0,4185.13,4072.69,4180,4175.38,4186.03,4176.28,4176.79,4178.85,4173.85,4192.82,4186.15,4161.15,4144.23,4176.79,0,8205,8159,0,13.0576,
38,0,4181.67,4068.08,4177.69,4172.95,4183.46,4169.87,4170.26,4172.31,4170,4187.31,4179.36,4156.03,4139.23,4172.69,0,8205,8159,0,13.0615,
39,0,4179.62,4063.33,4174.1,4171.54,4181.67,4166.15,4167.31,4168.46,4166.54,4182.82,4171.54,4150.77,4134.23,4168.08,0,8209,8157,0,13.0655,
40,0,4180.64,4061.54,4171.92,4172.18,4181.92,4166.92,4168.33,4168.59,4165.38,4181.41,4166.92,4148.21,4131.92,4165.77,0,8209,8157,0,13.0694,
41,0,4183.72,4064.1,4172.31,4175.26,4183.97,4171.15,4171.79,4171.67,4166.79,4182.82,4167.95,4149.62,4133.46,4167.44,0,8209,8164,0,13.0733,
42,0,4187.05,4069.74,4174.49,4179.74,4186.92,4175.9,4175.13,4175.26,4169.87,4185.26,4173.85,4153.72,4137.18,4172.18,0,8209,8164,0,13.0773,
43,0,4188.97,4075.64,4176.41,4183.72,4189.36,4178.08,4176.67,4176.54,4172.56,4187.05,4180.9,4157.44,4140.77,4177.05,0,8204,8157,0,13.0812,
44,0,4189.1,4078.59,4177.44,4185.51,4190.26,4177.18,4175.9,4174.87,4173.08,4187.18,4184.36,4158.08,4141.92,4179.1,0,8204,8157,0,13.0852,
45,0,4187.56,4077.82,4177.56,4184.62,4189.36,4174.23,4173.08,4171.15,4170.38,4186.03,4182.31,4155.64,4139.87,4177.56,0,8201,8153,0,13.0891,
46,0,4185,4075.13,4176.92,4182.18,4187.44,4170.9,4168.97,4167.95,4166.41,4184.49,4176.54,4151.92,4136.15,4173.72,0,8201,8153,0,13.093,
47,0,4183.33,4073.59,4175.64,4180.77,4186.15,4168.85,4164.49,4167.31,4164.1,4183.97,4171.28,4149.74,4133.46,4170.38,0,8201,8153,0,13.097,
48,0,4184.1,4075.13,4174.49,4181.79,4186.92,4168.97,4160.64,4169.23,4165,4184.74,4169.23,4150.38,4133.97,4168.97,0,8201,8153,0,13.1009,
49,0,4186.92,4078.97,4174.49,4185.26,4189.23,4170.51,4158.08,4171.54,4167.44,4186.15,4170.51,4152.69,4136.92,4169.36,0,8207,8161,0,13.1049,
50,0,4189.62,4082.31,4175.51,4188.97,4191.03,4172.05,4157.82,4171.54,4168.21,4186.79,4173.21,4154.49,4139.1,4170.38,0,8207,8161,0,13.1088,
51,0,4189.36,4082.44,4176.15,4190.26,4190.77,4172.31,4159.49,4168.46,4165.51,4186.03,4174.62,4154.1,4138.33,4170.64,0,8196,8157,0,13.1127,
52,0,4186.28,4078.97,4174.74,4187.82,4188.46,4171.03,4162.05,4164.36,4161.03,4184.49,4174.23,4151.54,4135,4170.51,0,8196,8157,0,13.1167,
53,0,4183.08,4074.74,4172.31,4183.21,4186.41,4170.13,4165,4162.69,4158.46,4183.21,4173.59,4148.97,4132.56,4171.28,0,8201,8152,0,13.1206,
54,0,4183.08,4073.72,4171.67,4179.74,4187.05,4171.41,4168.33,4166.03,4160.13,4184.23,4175.38,4149.1,4134.62,4174.87,0,8201,8152,0,13.1246,
55,0,4187.69,4077.82,4174.87,4180.26,4191.15,4175.38,4172.31,4172.95,4165.64,4188.72,4180.77,4153.46,4141.79,4181.79,0,8195,8144,0,13.1285,
56,0,4195.13,4085.13,4180,4184.87,4197.05,4180.26,4175.77,4179.23,4171.79,4195.64,4189.1,4160.9,4151.28,4190.77,0,8195,8144,0,13.1324,
57,0,4201.67,4091.41,4183.21,4191.28,4201.54,4183.59,4177.69,4181.28,4175.51,4201.41,4196.92,4168.21,4158.72,4198.46,0,8189,8153,0,13.1364,
58,0,4204.36,4093.85,4182.31,4196.41,4202.44,4184.1,4177.44,4178.59,4176.03,4203.46,4201.15,4172.18,4161.15,4201.92,0,8189,8153,0,13.1403,
59,0,4203.33,4092.56,4179.36,4198.46,4200.64,4183.33,4175.77,4174.23,4175.26,4201.79,4201.79,4172.05,4159.49,4201.28,0,8198,8153,0,13.1443,
60,0,4201.15,4090.13,4177.95,4197.69,4198.97,4182.95,4174.87,4172.31,4176.54,4199.62,4200.9,4170.13,4157.31,4198.97,0,8198,8153,0,13.1482,
61,0,4200.26,4089.1,4179.49,4195.51,4200,4184.1,4176.28,4175,4181.41,4200.64,4200.51,4168.72,4157.44,4197.69,0,8190,8145,0,13.1521,
62,0,4200.77,4090.13,4181.92,4192.82,4203.08,4186.41,4179.74,4181.15,4188.08,4205.51,4200.64,4169.1,4160,4197.82,0,8190,8145,0,13.1561,
63,0,4200.9,4091.67,4182.82,4190.26,4205.64,4188.72,4183.85,4187.44,4192.56,4211.41,4200.51,4170.64,4162.05,4198.33,0,8184,8144,0,13.16,
64,0,4199.36,4092.18,4181.79,4188.46,4205.38,4189.74,4186.41,4190.64,4193.21,4214.36,4200.13,4171.92,4161.67,4197.82,0,8184,8144,0,13.164,
65,0,4197.18,4090.9,4180.26,4187.95,4202.31,4189.36,4186.79,4189.36,4190.9,4211.92,4200.26,4172.18,4158.97,4196.41,0,8182,8152,0,13.1679,
66,0,4195.64,4089.1,4179.1,4188.46,4198.97,4188.08,4185.9,4184.74,4188.72,4206.03,4200.77,4170.9,4156.15,4195.26,0,8182,8152,0,13.1718,
67,0,4195.77,4088.08,4178.46,4189.49,4197.56,4187.05,4185.26,4180,4187.44,4200.38,4200.77,4168.97,4154.62,4194.87,0,8174,8137,0,13.1758,
68,0,4196.41,4088.08,4178.08,4189.87,4198.59,4186.41,4185.51,4177.69,4185.77,4198.08,4198.72,4167.31,4154.49,4194.23,0,8174,8137,0,13.1797,
69,0,4196.67,4088.85,4178.72,4189.1,4200,4185.77,4186.28,4177.82,4181.92,4199.23,4194.62,4167.18,4154.62,4192.69,0,8184,8131,0,13.1837,
70,0,4196.15,4089.36,4180.9,4187.56,4200,4185.26,4186.79,4178.85,4176.92,4200.9,4190.64,4168.46,4154.23,4190.9,0,8184,8131,0,13.1876,
71,0,4195.9,4089.74,4183.85,4186.28,4198.97,4185.51,4186.28,4178.85,4173.33,4200.51,4188.85,4169.74,4153.33,4189.62,0,8186,8139,0,13.1915,
72,0,4196.79,4089.74,4185.64,4186.03,4198.33,4186.41,4184.74,4177.56,4172.44,4196.92,4188.85,4169.23,4151.92,4188.72,0,8186,8139,0,13.1955,
73,0,4197.69,4088.85,4184.87,4186.41,4198.46,4186.92,4182.69,4175.64,4172.69,4191.41,4188.46,4166.03,4149.1,4187.56,0,8191,8136,0,13.1994,
74,0,4196.54,4085.77,4182.31,4186.67,4198.21,4185.26,4180,4173.85,4171.28,4185.77,4185.26,4161.15,4143.85,4184.87,0,8191,8136,0,13.2034,
75,0,4192.44,4080.77,4179.74,4186.03,4196.41,4181.67,4176.03,4171.92,4166.67,4182.05,4179.23,4155.9,4136.92,4180.51,0,8182,8134,0,13.2073,
76,0,4187.31,4075.77,4178.46,4185,4193.33,4177.56,4171.41,4169.36,4160.13,4180.64,4172.95,4151.54,4131.28,4176.15,0,8182,8134,0,13.2112,
77,0,4184.23,4073.72,4178.08,4184.36,4190.38,4175.51,4168.21,4166.41,4154.74,4181.15,4169.87,4148.97,4130.51,4174.49,0,8196,8141,0,13.2152,
78,0,4185.26,4076.03,4178.21,4184.62,4189.74,4176.67,4168.21,4164.87,4153.59,4182.69,4172.05,4149.36,4135.64,4177.05,0,8196,8141,0,13.2191,
79,0,4189.62,4081.79,4178.85,4185.38,4192.44,4180.51,4171.54,4166.28,4157.31,4184.62,4178.33,4152.56,4144.87,4182.82,0,8185,8151,0,13.2231,
241,0,4199.87,4186.03,4187.82,4191.67,4198.97,4192.05,4197.56,4192.05,4214.87,4203.97,4203.97,4180.77,4206.28,4206.41,3281,8112,8292,0,13.8614,
242,0,4195.64,4183.85,4183.97,4188.21,4196.79,4188.33,4192.56,4190.13,4212.18,4200.38,4197.44,4176.28,4199.23,4200.51,3559,8112,8292,0,13.8653,
243,0,4191.92,4184.36,4179.36,4187.95,4198.21,4187.31,4189.74,4189.74,4210.51,4198.72,4193.46,4172.05,4197.05,4197.44,3543,8128,8282,0,13.8692,
244,0,4190.13,4186.15,4177.82,4189.36,4200.9,4188.33,4189.23,4188.97,4208.59,4196.67,4190.9,4168.97,4198.21,4197.56,3570,8128,8282,0,13.8732,
245,0,4190.38,4186.92,4179.1,4190,4202.31,4189.36,4189.74,4187.44,4205.38,4192.69,4188.59,4167.18,4199.74,4199.23,3281,8132,8276,0,13.8771,
246,0,4192.31,4186.03,4180.38,4188.59,4201.28,4188.72,4189.74,4185.64,4201.79,4188.21,4186.28,4166.28,4199.74,4200,3559,8132,8276,0,13.8811,
247,0,4194.62,4184.74,4180.64,4185.9,4199.23,4186.03,4188.33,4184.74,4199.23,4185.26,4185.26,4166.28,4198.46,4199.36,3543,8139,8262,0,13.885,
248,0,4196.92,4184.49,4181.28,4184.62,4197.31,4182.82,4186.28,4186.03,4198.59,4185.64,4186.67,4167.18,4197.69,4198.59,3570,8139,8262,0,13.8889,
249,0,4198.85,4186.28,4184.36,4186.15,4196.54,4181.03,4185,4190,4199.62,4189.23,4189.74,4168.97,4199.23,4199.23,3281,8146,8256,0,13.8929,
250,0,4200.51,4189.23,4188.46,4190,4196.92,4181.15,4185.51,4196.15,4201.67,4193.97,4193.33,4171.67,4202.69,4201.92,3559,8146,8256,0,13.8968,
251,0,4201.41,4191.67,4190.9,4193.46,4197.82,4182.44,4187.56,4201.79,4204.1,4198.21,4196.54,4174.62,4205.77,4205.51,3543,8168,8246,0,13.9008,
252,0,4200.9,4191.79,4190.77,4194.36,4198.72,4183.33,4189.49,4204.1,4206.54,4200.38,4198.97,4177.18,4206.79,4208.08,3570,8168,8246,0,13.9047,
253,0,4198.85,4189.74,4188.85,4192.56,4198.85,4183.21,4189.87,4201.92,4208.85,4199.49,4200.13,4177.95,4205.64,4208.08,3281,8170,8240,0,13.9086,
254,0,4195.9,4186.79,4186.79,4189.74,4197.95,4182.69,4188.59,4196.54,4209.62,4195.64,4199.1,4176.03,4203.21,4205.26,3559,8170,8240,0,13.9126,
255,0,4193.46,4185.26,4184.62,4188.21,4195.9,4182.44,4186.67,4190.77,4208.08,4190.51,4196.41,4172.31,4200.26,4201.28,114,8181,8237,0,13.9165,
0,0,4192.56,4186.67,4182.95,4188.97,4193.97,4182.69,4186.03,4186.67,4204.36,4186.15,4193.08,4168.21,4198.08,4198.46,2342,8181,8237,0,13.9205,
1,0,4194.1,4190.9,4183.08,4191.15,4193.72,4183.08,4187.31,4185.13,4200.64,4184.36,4190.64,4165.9,4197.44,4197.69,3557,8175,8241,0,13.9244,
2,0,4197.56,4195.64,4185.51,4192.82,4196.03,4183.08,4189.74,4185.38,4198.97,4185,4189.74,4166.28,4198.59,4199.23,3502,8175,8241,0,13.9283,
3,0,4200.51,4197.95,4188.46,4192.56,4199.23,4182.56,4191.92,4186.41,4199.62,4186.92,4189.49,4168.72,4200.13,4201.54,3560,8179,8233,0,13.9323,
4,0,4200.64,4196.41,4189.36,4190.38,4200.64,4182.31,4192.95,4187.05,4200.64,4187.82,4188.97,4171.15,4200.26,4202.95,3494,8179,8233,0,13.9362,
5,0,4197.56,4191.67,4186.79,4187.44,4198.72,4182.69,4192.56,4186.92,4200.26,4187.18,4187.82,4171.41,4197.95,4202.56,3530,8192,8228,0,13.9401,
6,0,4192.69,4186.54,4183.33,4185.13,4193.97,4183.59,4190.77,4186.15,4197.95,4185.38,4186.67,4169.1,4193.85,4200.13,3429,8192,8228,0,13.944,
7,0,4188.21,4183.21,4182.05,4183.97,4188.85,4184.1,4188.85,4185.26,4195,4183.21,4185.77,4165.51,4189.87,4196.15,2747,8188,8232,0,13.9479,
8,0,4184.87,4182.69,4182.95,4183.08,4185.38,4183.46,4188.21,4184.23,4193.08,4181.54,4184.74,4162.44,4187.82,4191.41,3417,8188,8232,0,13.9519,
9,0,4182.69,4183.85,4183.46,4181.92,4184.23,4181.92,4190,4183.33,4193.97,4181.03,4183.72,4161.28,4188.72,4187.05,3606,8201,8228,0,13.9558,
10,0,4181.54,4185,4181.03,4180.64,4185.26,4180.51,4193.33,4183.08,4197.95,4182.05,4183.59,4162.05,4191.54,4184.49,3557,8201,8228,0,13.9598,
11,0,4181.79,4185.13,4177.05,4180.13,4187.05,4179.74,4196.54,4183.85,4203.33,4184.36,4185,4164.49,4194.87,4185,3528,8200,8238,0,13.9637,
12,0,4183.59,4185,4175,4181.15,4188.46,4180,4197.69,4185.64,4207.82,4187.69,4187.69,4167.95,4197.31,4188.21,3570,8200,8238,0,13.9676,
13,0,4186.41,4185.51,4176.41,4183.21,4189.49,4181.54,4196.15,4187.18,4210.13,4191.67,4190.9,4170.77,4199.1,4192.56,3261,8200,8231,0,13.9716,
14,0,4188.85,4187.31,4178.85,4185.51,4190.64,4183.72,4192.56,4187.44,4209.74,4195.13,4193.85,4171.41,4201.15,4195.64,3557,8200,8231,0,13.9755,
15,0,4190,4189.74,4178.85,4186.79,4191.79,4185.13,4188.46,4185.38,4207.56,4196.54,4195,4169.1,4203.21,4195.64,3528,8194,8243,0,13.9795,
16,0,4189.74,4190.77,4176.54,4186.28,4192.05,4184.23,4185.26,4181.79,4204.49,4194.23,4192.95,4163.97,4203.97,4192.18,3570,8194,8243,0,13.9834,
17,0,4188.46,4188.97,4174.36,4183.97,4189.87,4180.9,4183.33,4178.33,4200.9,4188.97,4187.82,4157.69,4201.79,4186.67,3261,8185,8257,0,13.9873,
18,0,4186.92,4185.26,4174.1,4181.03,4185.38,4176.41,4182.82,4176.92,4197.31,4183.33,4182.18,4153.21,4197.44,4182.05,3557,8185,8257,0,13.9913,
19,0,4185.51,4181.79,4174.74,4178.72,4181.41,4173.59,4183.08,4178.08,4195,4181.15,4179.87,4152.69,4194.23,4181.15,3528,8189,8269,0,13.9952,
20,0,4185,4181.03,4174.62,4178.46,4181.03,4174.49,4183.59,4181.28,4195.64,4184.36,4182.95,4156.28,4196.03,4185.13,3570,8189,8269,0,13.9992,
21,0,4185.64,4183.21,4173.97,4180.38,4185.26,4179.23,4183.59,4184.62,4199.49,4191.67,4190.38,4162.18,4203.59,4192.56,3261,8179,8282,0,14.0031,
22,0,4187.31,4186.92,4174.74,4182.82,4191.79,4185.51,4182.95,4187.05,4204.87,4198.97,4198.33,4167.69,4213.59,4200.13,3557,8179,8282,0,14.007,
23,0,4188.97,4189.87,4177.56,4183.97,4196.28,4190,4182.69,4188.08,4209.1,4202.82,4202.95,4170.64,4221.41,4204.87,3528,8182,8290,0,14.011,
24,0,4190.13,4190.38,4180.64,4183.72,4196.15,4190.64,4183.59,4187.82,4210.26,4202.95,4203.46,4170.77,4224.1,4205.9,3570,8182,8290,0,14.0149,
25,0,4190.13,4188.72,4181.03,4183.08,4192.05,4188.33,4185.64,4187.05,4208.59,4201.03,4201.54,4169.36,4221.92,4203.85,3261,8166,8312,0,14.0189,
26,0,4188.85,4186.15,4178.85,4182.95,4186.67,4185,4187.56,4186.03,4205.64,4199.36,4199.36,4168.46,4216.79,4200.64,3557,8166,8312,0,14.0228,
27,0,4186.92,4184.23,4177.31,4183.21,4183.33,4182.69,4187.44,4185.51,4202.69,4198.08,4198.33,4168.59,4211.54,4197.95,3528,8161,8320,0,14.0267,
28,0,4185.26,4183.33,4179.23,4182.69,4183.46,4182.18,4184.87,4185.26,4200.9,4196.79,4197.95,4169.23,4208.08,4196.79,3570,8161,8320,0,14.0307,
29,0,4184.49,4183.08,4183.33,4181.28,4186.54,4183.33,4181.41,4185.26,4200.64,4195.64,4197.31,4169.36,4207.05,4197.05,3261,8151,8344,0,14.0346,
30,0,4184.49,4183.08,4185.51,4179.36,4189.62,4184.74,4179.23,4185.38,4201.67,4194.87,4195.38,4168.97,4207.56,4198.33,3557,8151,8344,0,14.0386,
31,0,4184.49,4182.95,4184.23,4177.69,4190.38,4185.38,4179.1,4185.64,4203.21,4194.49,4192.56,4168.21,4208.59,4199.36,3528,8138,8366,0,14.0425,
32,0,4183.97,4182.44,4181.67,4177.44,4188.21,4185.13,4180.51,4186.03,4205,4194.49,4190.38,4167.82,4209.49,4199.49,0,8138,8366,0,14.0464,
33,0,4183.72,4182.05,4180.9,4179.23,4184.87,4184.62,4182.31,4187.31,4207.44,4195.26,4190.77,4168.08,4210.13,4198.97,0,8135,8404,0,14.0504,
34,0,4184.74,4182.31,4182.44,4182.69,4182.95,4184.87,4184.23,4190.38,4211.41,4197.44,4194.49,4169.23,4210.77,4198.85,0,8135,8404,0,14.0543,
35,0,4187.31,4183.33,4183.72,4186.03,4183.59,4186.28,4186.79,4195.13,4216.41,4200.9,4199.87,4171.15,4211.79,4199.23,0,8133,8425,0,14.0583,
36,0,4190.38,4184.62,4183.46,4188.08,4186.15,4188.59,4190.64,4200.26,4221.03,4204.87,4203.97,4173.21,4213.33,4200.13,0,8133,8425,0,14.0622,
37,0,4192.31,4185.51,4183.21,4188.33,4188.33,4191.28,4194.87,4204.1,4223.72,4208.59,4205.13,4174.74,4215.38,4201.67,0,8113,8459,0,14.0661,
38,0,4192.31,4185.26,4184.49,4187.44,4189.1,4193.08,4197.44,4205.26,4223.59,4210.51,4203.85,4175.13,4216.92,4203.85,0,8113,8459,0,14.0701,
39,0,4190.13,4184.1,4186.79,4186.28,4188.59,4192.56,4196.67,4203.46,4221.28,4209.62,4201.67,4174.36,4216.41,4204.74,0,8118,8478,0,14.074,
40,0,4186.79,4182.44,4187.69,4185.38,4187.31,4190.26,4193.08,4200.38,4218.21,4206.28,4200.38,4172.69,4213.08,4202.95,0,8118,8478,0,14.078,
41,0,4183.59,4181.41,4186.54,4184.87,4185.64,4187.69,4188.97,4198.72,4216.03,4202.56,4200.13,4170.9,4208.21,4198.46,0,8113,8487,0,14.0819,
42,0,4181.92,4181.41,4185.13,4184.74,4184.62,4186.54,4186.92,4199.62,4215.9,4200.51,4200.13,4170.13,4203.85,4193.59,0,8113,8487,0,14.0858,
43,0,4182.69,4182.31,4185.38,4185,4184.74,4186.67,4187.44,4202.18,4217.31,4200.51,4199.23,4170.51,4201.28,4191.03,0,8123,8489,0,14.0898,
44,0,4185.13,4183.33,4186.28,4185.13,4185.77,4186.15,4188.72,4203.08,4218.08,4201.41,4197.05,4171.15,4200.51,4191.54,0,8123,8489,0,14.0937,
45,0,4187.31,4183.08,4185,4183.85,4186.41,4183.33,4188.33,4199.62,4215.9,4201.41,4194.49,4170.38,4200.9,4193.59,0,8127,8480,0,14.0977,
46,0,4186.54,4180.26,4181.41,4180.13,4185.26,4178.21,4185.51,4192.56,4210.26,4199.74,4192.05,4168.08,4201.41,4194.74,0,8127,8480,0,14.1016,
47,0,4181.92,4174.49,4178.46,4174.49,4182.05,4173.46,4182.69,4185.38,4203.97,4197.18,4190.51,4165.13,4201.67,4193.21,0,8131,8459,0,14.1055,
48,0,4175,4167.44,4179.23,4169.1,4177.69,4171.54,4182.05,4182.18,4200.38,4195.38,4189.62,4163.08,4201.03,4189.23,0,8131,8459,0,14.1095,
49,0,4168.85,4162.05,4182.44,4166.67,4173.33,4172.69,4183.46,4183.46,4200.64,4195,4189.36,4161.92,4199.36,4184.74,0,8140,8441,0,14.1134,
50,0,4166.15,4161.54,4183.85,4167.82,4170.64,4174.36,4184.36,4186.41,4202.56,4195.13,4188.97,4160.9,4196.79,4182.05,0,8140,8441,0,14.1174,
51,0,4168.46,4167.44,4181.67,4171.92,4170.64,4174.1,4181.92,4187.44,4202.05,4193.59,4188.33,4158.85,4194.1,4182.44,0,8147,8376,0,14.1213,
52,0,4174.74,4178.59,4178.85,4177.31,4173.46,4171.15,4176.67,4184.36,4197.31,4189.49,4187.18,4156.54,4191.67,4185.13,0,8147,8376,0,14.1252,
53,0,4182.05,4191.15,4178.72,4182.44,4177.95,4167.44,4171.15,4177.95,4189.87,4183.85,4184.87,4155.26,4189.23,4187.56,0,8148,8352,0,14.1292,
54,0,4186.79,4200.64,4180.64,4185.51,4182.44,4165.38,4168.33,4171.03,4182.95,4178.33,4180.38,4155.13,4185,4186.67,0,8148,8352,0,14.1331,
55,0,4186.41,4204.49,4180.64,4185.64,4185.26,4165.9,4168.33,4166.15,4178.97,4173.59,4173.08,4154.74,4177.56,4181.15,0,8155,8305,0,14.1371,
56,0,4182.31,4203.85,4177.05,4183.97,4185.9,4167.82,4169.62,4165.38,4178.72,4169.74,4163.59,4152.18,4167.31,4172.56,0,8155,8305,0,14.141,
57,0,4179.1,4202.69,4173.21,4182.31,4185.13,4169.1,4170.77,4168.85,4181.15,4167.18,4154.87,4147.56,4157.18,4165.38,0,8167,8282,0,14.1449,
58,0,4180.26,4204.1,4173.08,4182.31,4184.23,4169.23,4171.67,4174.49,4185,4166.79,4150.26,4142.56,4151.03,4163.33,0,8167,8282,0,14.1489,
59,0,4185.26,4207.82,4176.28,4183.85,4184.36,4169.1,4172.82,4179.62,4188.85,4168.59,4150.38,4139.36,4150.64,4166.03,0,8173,8237,0,14.1528,
60,0,4189.36,4211.03,4178.08,4184.87,4185,4170,4173.97,4182.31,4191.67,4171.28,4153.33,4138.08,4154.23,4170.38,0,8173,8237,0,14.1568,
61,0,4188.59,4210.77,4175.26,4183.46,4185.26,4171.67,4174.36,4181.67,4192.69,4173.21,4155.26,4137.44,4158.08,4172.31,0,8179,8220,0,14.1607,
62,0,4182.95,4206.67,4169.74,4179.1,4184.74,4171.92,4172.56,4178.33,4191.41,4172.56,4154.23,4136.54,4158.46,4169.87,0,8179,8220,0,14.1646,
63,0,4175.9,4201.54,4166.15,4173.21,4183.72,4169.23,4168.08,4174.36,4188.72,4169.62,4150.9,4136.03,4155.38,4164.62,0,8187,8200,0,14.1686,
64,0,4171.92,4198.33,4166.92,4168.97,4182.95,4163.97,4161.15,4171.92,4186.03,4166.41,4148.21,4137.18,4151.28,4160.26,0,8187,8200,0,14.1725,
65,0,4172.95,4198.85,4169.87,4168.59,4183.33,4159.1,4154.23,4172.05,4185.38,4165.64,4148.46,4140.64,4149.36,4160.26,0,8186,8176,0,14.1765,
66,0,4177.82,4201.67,4172.56,4171.79,4184.74,4157.56,4150.13,4174.49,4187.31,4167.56,4151.41,4145.38,4150.77,4164.62,0,8186,8176,0,14.1804,
67,0,4183.85,4204.36,4174.49,4176.92,4186.28,4160.26,4150.38,4176.92,4189.62,4170.38,4155.38,4150.38,4153.97,4169.87,0,8186,8162,0,14.1843,
68,0,4188.46,4205.38,4176.79,4181.67,4187.05,4165.38,4154.49,4177.56,4190.64,4172.31,4158.72,4154.49,4157.31,4173.33,0,8186,8162,0,14.1883,
69,0,4190.38,4204.87,4179.36,4184.87,4187.05,4170,4160.26,4176.28,4189.62,4172.82,4160.64,4157.05,4159.36,4174.74,0,8188,8165,0,14.1922,
70,0,4189.49,4203.97,4180.26,4186.03,4187.05,4172.05,4165.9,4174.62,4187.69,4172.44,4161.41,4158.59,4159.87,4175.9,0,8188,8165,0,14.1962,
71,0,4186.92,4203.08,4178.21,4185.51,4187.18,4171.15,4169.62,4173.59,4185.77,4171.67,4161.15,4159.23,4159.1,4177.95,0,8186,8159,0,14.2001,
72,0,4184.23,4201.92,4175.26,4183.72,4187.31,4168.72,4170.64,4173.08,4183.97,4170.38,4160.38,4159.74,4157.69,4180.13,0,8186,8159,0,14.204,
253,0,4162.31,4175.51,4147.31,4168.08,4168.97,4170.77,4172.82,4172.18,4180.38,4184.23,4155.9,4146.03,4156.03,4157.56,3260,8176,8179,0,14.9172,
254,0,4166.28,4181.79,4144.74,4173.46,4171.92,4173.21,4172.18,4172.44,4183.46,4187.56,4156.67,4144.1,4157.31,4159.1,3555,8176,8179,0,14.9211,
255,0,4164.36,4184.23,4139.74,4172.82,4175.51,4172.31,4170.26,4171.79,4182.95,4185.9,4154.23,4138.08,4156.03,4157.56,114,8177,8176,0,14.9251,
0,0,4158.59,4182.95,4136.92,4168.33,4178.97,4169.49,4168.46,4171.15,4180.64,4181.92,4150.77,4131.92,4153.46,4154.23,2335,8177,8176,0,14.929,
1,0,4153.59,4181.67,4137.44,4165.51,4181.92,4168.72,4168.59,4171.67,4179.87,4180.51,4149.1,4129.62,4152.69,4152.31,3557,8179,8173,0,14.933,
2,0,4153.59,4183.46,4139.1,4167.69,4184.49,4172.05,4170.51,4172.95,4181.79,4184.49,4151.15,4131.92,4156.03,4154.1,3254,8179,8173,0,14.9369,
3,0,4159.1,4189.23,4140.26,4173.59,4186.41,4177.82,4172.95,4173.72,4184.87,4191.54,4155.51,4136.79,4162.05,4158.85,3560,8177,8176,0,14.9408,
4,0,4166.79,4196.28,4141.03,4178.85,4187.18,4181.92,4173.85,4172.56,4186.54,4196.67,4158.46,4140.64,4166.67,4163.33,3493,8177,8176,0,14.9448,
5,0,4172.56,4201.41,4142.31,4180.51,4186.79,4181.67,4172.69,4169.87,4185.9,4195.9,4157.69,4140.77,4166.67,4164.36,3529,8175,8176,0,14.9487,
6,0,4174.36,4202.69,4142.82,4179.23,4186.03,4177.82,4170.9,4167.69,4184.49,4190.51,4154.1,4137.18,4162.56,4161.41,3427,8175,8176,0,14.9527,
7,0,4172.31,4201.03,4141.03,4177.82,4185.51,4173.97,4170.26,4167.69,4184.23,4185.38,4151.03,4132.56,4158.33,4157.31,2743,8176,8165,0,14.9566,
8,0,4168.72,4198.72,4137.44,4178.33,4185.38,4172.69,4170.9,4169.87,4185.51,4184.74,4151.41,4130.13,4157.82,4155.38,3417,8176,8165,0,14.9605,
9,0,4166.15,4197.44,4135.77,4180.51,4185.77,4174.36,4172.18,4172.56,4187.05,4188.85,4155.38,4131.67,4161.92,4157.44,3606,8181,8170,0,14.9645,
10,0,4166.28,4197.44,4138.08,4182.95,4186.28,4176.54,4172.69,4173.72,4187.69,4194.36,4160.51,4136.15,4168.33,4162.82,3552,8181,8170,0,14.9684,
11,0,4168.85,4198.08,4143.08,4184.1,4186.15,4176.92,4172.44,4173.08,4187.44,4197.44,4163.97,4140.38,4173.21,4168.21,3519,8170,8173,0,14.9724,
12,0,4172.44,4198.72,4146.92,4183.59,4185.51,4174.74,4171.92,4171.28,4186.79,4196.41,4163.97,4142.18,4174.1,4171.03,3570,8170,8173,0,14.9763,
13,0,4175.64,4199.23,4147.82,4182.31,4185.38,4171.67,4170.77,4169.74,4186.15,4192.18,4161.54,4141.41,4171.67,4171.03,3260,8187,8172,0,14.9802,
14,0,4177.82,4199.49,4148.08,4180.9,4186.15,4169.62,4168.72,4169.36,4185.13,4187.56,4159.23,4140.26,4168.46,4170,3552,8187,8172,0,14.9842,
15,0,4178.33,4199.23,4149.74,4179.49,4187.31,4169.62,4165.26,4170.13,4183.72,4185,4158.72,4140.51,4166.92,4170,3519,8185,8172,0,14.9881,
16,0,4176.54,4197.56,4151.92,4177.44,4186.79,4171.15,4160.9,4171.03,4182.44,4185,4159.74,4141.79,4167.05,4171.54,3570,8185,8172,0,14.9921,
17,0,4172.31,4194.1,4151.03,4174.1,4183.33,4172.31,4157.69,4170.9,4181.54,4186.03,4160.26,4142.44,4167.56,4173.21,3260,8183,8169,0,14.9959,
18,0,4168.08,4189.74,4146.92,4170,4177.56,4171.92,4157.05,4170,4181.28,4186.79,4158.85,4141.15,4167.69,4173.59,3552,8183,8169,0,14.9998,
19,0,4166.79,4186.03,4143.08,4166.92,4172.31,4170.77,4159.36,4169.36,4181.79,4187.05,4156.28,4139.1,4167.82,4172.82,3519,8191,8164,0,15.0038,
20,0,4169.23,4183.59,4143.33,4166.28,4170.13,4170.13,4163.21,4170.38,4182.69,4187.44,4154.36,4138.21,4168.21,4171.54,3570,8191,8164,0,15.0077,
21,0,4173.08,4181.79,4146.54,4167.56,4171.41,4170.9,4166.67,4174.1,4184.1,4188.21,4153.85,4139.36,4167.69,4170,3260,8188,8165,0,15.0117,
22,0,4174.1,4179.1,4148.33,4168.59,4174.49,4172.31,4169.62,4180.26,4186.03,4188.21,4154.23,4141.03,4164.36,4167.31,3552,8188,8165,0,15.0156,
23,0,4170.64,4175.51,4146.28,4167.95,4176.54,4173.46,4172.18,4186.54,4188.21,4187.05,4154.1,4141.54,4158.46,4163.46,3519,8190,8170,0,15.0195,
24,0,4164.36,4172.82,4142.95,4166.15,4176.03,4173.97,4174.1,4189.36,4189.62,4184.74,4153.21,4140.38,4152.95,4160,3570,8190,8170,0,15.0235,
25,0,4160.26,4173.08,4142.82,4165.13,4173.59,4174.1,4173.85,4187.05,4189.36,4183.46,4153.21,4139.36,4151.92,4159.87,3260,8191,8161,0,15.0274,
26,0,4162.05,4176.79,4146.67,4166.28,4171.41,4173.85,4170.64,4180.77,4187.82,4185.26,4156.15,4140.77,4158.21,4164.74,3552,8191,8161,0,15.0314,
27,0,4169.87,4181.92,4150.77,4169.1,4171.54,4172.95,4166.03,4174.49,4187.18,4190.77,4162.95,4145.26,4170.13,4173.46,3519,8204,8153,0,15.0353,
28,0,4180,4185.64,4152.05,4171.41,4174.62,4172.05,4162.56,4172.82,4189.49,4198.21,4171.03,4150.64,4182.82,4182.56,3570,8204,8153,0,15.0392,
29,0,4187.69,4186.92,4150.9,4172.18,4178.85,4171.67,4161.92,4176.54,4194.74,4204.1,4175.9,4153.85,4190.77,4188.33,3260,8199,8162,0,15.0432,
30,0,4189.74,4186.67,4150.38,4171.79,4181.92,4172.44,4164.1,4182.44,4199.74,4205.26,4175.38,4152.95,4191.28,4188.97,3552,8199,8162,0,15.0471,
31,0,4186.03,4186.41,4151.28,4171.54,4181.92,4173.33,4166.28,4185.64,4200,4200.51,4170,4148.21,4185.77,4185.26,3519,8202,8156,0,15.0511,
32,0,4178.97,4186.28,4151.15,4171.92,4179.36,4173.21,4165.51,4183.21,4193.59,4191.15,4162.56,4141.79,4178.21,4179.62,0,8202,8156,0,15.055,
33,0,4171.92,4185,4148.08,4171.92,4176.03,4171.54,4160.9,4176.41,4182.69,4180.9,4156.15,4136.03,4172.05,4174.87,0,8191,8168,0,15.059,
34,0,4167.18,4181.03,4143.59,4170.26,4173.08,4168.97,4155,4169.23,4172.82,4172.82,4151.92,4132.56,4167.44,4172.18,0,8191,8168,0,15.0629,
35,0,4165,4174.36,4140.38,4165.9,4170.77,4167.05,4151.28,4165.38,4167.82,4168.46,4149.1,4131.41,4163.33,4170.9,0,8200,8159,0,15.0668,
36,0,4164.23,4167.82,4139.74,4160,4169.49,4166.54,4151.54,4165.38,4167.44,4166.79,4146.54,4131.54,4158.97,4169.49,0,8200,8159,0,15.0708,
37,0,4163.85,4164.74,4140.13,4155.9,4169.87,4167.44,4154.49,4167.18,4168.85,4166.15,4144.1,4132.18,4155.51,4167.56,0,8200,8145,0,15.0747,
38,0,4164.49,4167.44,4140.64,4156.54,4172.56,4168.97,4157.31,4167.95,4169.36,4165.38,4143.08,4133.59,4154.49,4166.79,0,8200,8145,0,15.0787,
39,0,4167.05,4174.62,4142.69,4162.95,4176.92,4170.26,4158.21,4166.79,4169.1,4165.38,4144.87,4136.54,4157.05,4168.72,0,8215,8139,0,15.0826,
40,0,4171.92,4182.31,4147.82,4172.18,4181.15,4171.15,4157.69,4164.87,4169.62,4167.69,4149.49,4140.9,4162.31,4173.46,0,8215,8139,0,15.0865,
41,0,4177.44,4186.92,4154.1,4180,4183.85,4171.54,4157.31,4164.23,4172.44,4172.56,4155.77,4145.51,4168.59,4179.36,0,8208,8144,0,15.0905,
42,0,4181.79,4187.44,4157.44,4183.85,4184.36,4171.03,4157.69,4165.9,4177.18,4178.21,4161.79,4148.85,4173.59,4184.23,0,8208,8144,0,15.0944,
43,0,4183.72,4185.64,4155.64,4183.72,4182.82,4169.62,4157.95,4168.72,4181.28,4182.44,4166.79,4150.64,4176.67,4186.28,0,8197,8153,0,15.0984,
44,0,4183.72,4184.36,4152.18,4181.92,4180.38,4167.44,4156.54,4170.64,4182.56,4184.36,4170,4151.54,4178.21,4185.9,0,8197,8153,0,15.1023,
45,0,4183.46,4185.51,4152.31,4181.15,4178.72,4165.51,4153.97,4170.9,4180.9,4185,4171.67,4153.08,4179.87,4185,0,8203,8149,0,15.1062,
46,0,4184.23,4188.33,4157.18,4182.05,4179.23,4164.62,4152.31,4170,4178.72,4186.41,4172.18,4155.64,4182.44,4185.64,0,8203,8149,0,15.1102,
47,0,4185.64,4190.51,4161.92,4183.33,4181.92,4165.13,4153.08,4169.23,4178.46,4189.49,4172.56,4157.95,4185.51,4187.82,0,8200,8137,0,15.1141,
48,0,4185.9,4189.87,4161.54,4182.82,4184.87,4166.54,4155.9,4169.23,4180.38,4192.82,4172.95,4158.33,4186.92,4188.85,0,8200,8137,0,15.1181,
49,0,4183.33,4185.9,4156.03,4179.62,4186.03,4167.82,4158.97,4169.49,4182.69,4193.59,4172.69,4155.9,4184.62,4186.15,0,8197,8132,0,15.122,
50,0,4177.82,4179.87,4150.51,4174.87,4184.49,4168.46,4159.87,4168.97,4183.46,4190.9,4171.03,4151.54,4178.85,4179.49,0,8197,8132,0,15.1259,
51,0,4171.54,4174.36,4148.33,4170.77,4181.03,4168.46,4158.21,4167.18,4182.05,4186.67,4168.46,4147.31,4172.82,4171.79,0,8205,8139,0,15.1299,
52,0,4166.79,4171.67,4148.97,4168.59,4178.46,4168.21,4154.87,4165.38,4180.13,4184.62,4166.79,4145,4170.77,4167.56,0,8205,8139,0,15.1338,
53,0,4165.38,4172.31,4149.1,4168.59,4178.97,4168.46,4152.56,4165.77,4180.13,4186.92,4167.95,4146.03,4174.74,4169.49,0,8205,8142,0,15.1378,
54,0,4167.44,4174.62,4148.21,4169.87,4182.69,4169.49,4153.33,4169.62,4183.21,4193.46,4172.69,4150.13,4183.08,4176.92,0,8205,8142,0,15.1417,
55,0,4171.03,4176.28,4148.46,4171.28,4186.54,4170.77,4157.44,4176.15,4188.72,4201.03,4179.36,4156.41,4191.67,4185.38,0,8201,8144,0,15.1456,
56,0,4173.72,4175.77,4150.51,4171.41,4187.44,4171.79,4163.08,4182.56,4194.36,4206.03,4184.62,4162.31,4196.15,4190.13,0,8201,8144,0,15.1496,
57,0,4173.85,4172.82,4152.18,4170.13,4183.97,4171.67,4167.69,4186.54,4198.33,4206.28,4185.64,4165.51,4194.23,4189.49,0,8203,8133,0,15.1535,
58,0,4172.05,4169.62,4150.9,4168.59,4178.59,4170.64,4169.74,4187.69,4200.26,4203.08,4182.05,4165.51,4188.08,4185.51,0,8203,8133,0,15.1575,
59,0,4170.26,4168.21,4148.08,4168.21,4174.74,4169.49,4169.87,4186.79,4200.51,4198.85,4176.67,4163.46,4182.82,4182.44,0,8197,8143,0,15.1614,
60,0,4170.64,4169.1,4147.18,4169.36,4174.23,4169.23,4169.87,4185.26,4198.97,4195.9,4172.95,4161.54,4181.79,4182.56,0,8197,8143,0,15.1653,
61,0,4172.95,4170.9,4150.26,4171.28,4176.41,4170.38,4170.64,4183.21,4194.87,4193.72,4172.82,4160.51,4184.36,4185.13,0,8194,8147,0,15.1693,
62,0,4175.26,4171.79,4154.36,4172.82,4178.97,4172.18,4172.18,4180.77,4188.72,4191.28,4175.38,4159.62,4186.15,4186.67,0,8194,8147,0,15.1732,
63,0,4174.62,4170.26,4155.64,4172.56,4179.49,4173.21,4172.95,4177.95,4181.92,4187.44,4176.92,4157.69,4183.97,4184.62,0,8203,8148,0,15.1772,
64,0,4170.51,4166.03,4152.82,4170.64,4176.67,4171.67,4172.31,4174.74,4175.9,4182.69,4174.1,4154.23,4177.44,4178.72,0,8203,8148,0,15.1811,
65,0,4165,4159.49,4149.23,4167.69,4171.03,4166.79,4170.64,4170.64,4171.41,4177.56,4166.28,4150.26,4169.49,4171.41,0,8191,8162,0,15.185,
66,0,4161.15,4153.33,4147.56,4164.62,4164.36,4159.62,4168.59,4165.64,4168.21,4172.69,4157.18,4147.56,4163.85,4166.28,0,8191,8162,0,15.189,
67,0,4161.03,4150.77,4147.56,4163.21,4159.1,4153.46,4167.18,4160.13,4165.26,4169.49,4151.92,4147.44,4163.33,4165,0,8183,8159,0,15.1929,
68,0,4164.1,4154.1,4147.56,4164.49,4157.18,4151.41,4166.54,4155.77,4162.31,4168.59,4153.72,4149.36,4167.31,4167.05,0,8183,8159,0,15.1969,
69,0,4167.31,4161.03,4147.18,4167.82,4158.97,4153.85,4166.54,4154.74,4160.77,4170,4160.77,4151.67,4172.18,4170.38,0,8184,8160,0,15.2008,
70,0,4167.69,4167.18,4147.95,4171.03,4162.82,4157.95,4166.54,4157.56,4161.41,4172.05,4167.69,4152.44,4173.85,4172.44,0,8184,8160,0,15.2047,
71,0,4164.49,4168.59,4150.13,4171.54,4166.79,4160,4166.03,4162.69,4163.46,4172.56,4169.36,4150.9,4169.87,4171.79,0,8185,8172,0,15.2087,
72,0,4159.74,4165.13,4151.41,4168.85,4168.72,4158.46,4165.51,4167.44,4165.51,4170.9,4164.74,4147.05,4161.92,4168.72,0,8185,8172,0,15.2126,
73,0,4156.67,4160,4149.87,4164.74,4167.82,4155.51,4165.77,4170,4166.54,4169.23,4157.69,4142.82,4154.87,4164.74,0,8181,8178,0,15.2166,
74,0,4157.31,4157.05,4146.67,4161.67,4165.38,4155.26,4166.79,4170.26,4167.44,4170.38,4153.72,4141.28,4153.72,4163.08,0,8181,8178,0,15.2205,
75,0,4161.79,4158.59,4146.03,4161.67,4163.97,4159.36,4168.33,4170.26,4169.87,4175.64,4156.54,4144.62,4160.13,4166.03,0,8178,8177,0,15.2244,
76,0,4167.56,4164.36,4149.87,4164.74,4165.77,4166.03,4169.74,4172.05,4174.23,4183.33,4165.9,4152.31,4171.41,4173.46,0,8178,8177,0,15.2284,
77,0,4172.05,4171.28,4155.38,4169.49,4170.77,4171.67,4171.15,4175.51,4180,4190.38,4177.31,4161.28,4181.92,4182.69,0,8168,8178,0,15.2323,
78,0,4173.97,4175.9,4157.69,4173.33,4175.64,4173.85,4172.56,4178.59,4184.36,4194.1,4184.87,4167.44,4187.05,4189.1,0,8168,8178,0,15.2363,
79,0,4173.08,4175.9,4155.26,4174.36,4177.18,4172.69,4173.08,4178.46,4184.62,4193.21,4185.13,4167.95,4185.13,4189.23,0,8182,8182,0,15.2402,
80,0,4170.38,4171.03,4151.15,4172.05,4174.36,4170,4171.41,4173.85,4178.85,4188.21,4178.85,4162.56,4177.69,4182.95,0,8182,8182,0,15.2441,
81,0,4166.79,4164.1,4148.59,4167.82,4169.62,4167.18,4167.56,4166.41,4168.85,4181.15,4169.62,4153.97,4168.21,4174.49,0,8173,8183,0,15.2481,
82,0,4162.95,4158.33,4147.18,4163.21,4165.9,4165.13,4162.69,4159.23,4159.62,4174.36,4161.67,4145.26,4160.64,4168.21,0,8173,8183,0,15.252,
83,0,4158.85,4154.87,4144.23,4159.36,4164.62,4163.72,4159.1,4154.23,4155.38,4169.49,4156.79,4139.36,4156.79,4165.51,0,8182,8174,0,15.256,
84,0,4155,4153.08,4138.72,4156.28,4165.51,4163.33,4158.46,4151.92,4156.79,4167.31,4155.26,4136.92,4156.67,4164.87,0,8182,8174,0,15.2599,
7,0,4198.72,4198.72,4170.77,4187.69,4183.08,4187.18,4186.67,4186.15,4191.15,4186.03,4190.26,4175.26,4187.44,4202.31,2743,8178,8158,0,15.9652,
8,0,4197.44,4198.59,4173.21,4186.67,4179.74,4185.9,4187.44,4182.82,4186.28,4182.31,4186.28,4175.64,4184.36,4199.62,3422,8178,8158,0,15.9691,
9,0,4193.33,4196.03,4174.87,4185,4175,4181.79,4185,4178.46,4181.54,4176.79,4179.36,4171.03,4179.62,4193.46,3666,8187,8162,0,15.9731,
10,0,4187.95,4191.67,4173.08,4183.21,4170.77,4176.28,4179.23,4175.26,4179.23,4171.41,4171.54,4162.82,4173.72,4185.64,3558,8187,8162,0,15.977,
11,0,4183.59,4187.18,4168.46,4181.92,4169.74,4171.15,4172.18,4174.87,4179.62,4168.21,4165.51,4154.49,4168.33,4179.23,3524,8185,8162,0,15.9809,
12,0,4181.92,4184.23,4164.49,4182.05,4172.56,4168.97,4167.44,4177.69,4181.67,4168.72,4163.85,4149.36,4165,4175.9,3576,8185,8162,0,15.9849,
13,0,4183.33,4184.36,4163.21,4183.59,4178.21,4171.28,4167.31,4182.95,4184.49,4173.08,4167.56,4149.1,4165.26,4176.15,3261,8188,8151,0,15.9888,
14,0,4186.03,4187.56,4162.95,4185.38,4183.97,4177.56,4171.03,4187.95,4187.82,4179.87,4174.74,4152.82,4168.97,4179.36,3558,8188,8151,0,15.9928,
15,0,4188.59,4192.44,4161.67,4185.77,4187.95,4184.1,4175.51,4190.51,4191.92,4186.67,4182.18,4158.97,4175.26,4183.97,3524,8199,8156,0,15.9967,
16,0,4191.03,4197.18,4160.13,4184.49,4188.72,4187.05,4177.56,4190.13,4196.03,4190.77,4187.44,4165.64,4181.67,4188.72,3576,8199,8156,0,16.0006,
17,0,4193.85,4200,4161.15,4182.95,4186.92,4184.62,4176.15,4188.21,4198.59,4191.41,4190.13,4171.15,4186.54,4192.05,3261,8191,8153,0,16.0046,
18,0,4196.67,4199.87,4165.13,4183.21,4184.1,4178.33,4172.18,4186.79,4198.97,4190,4191.15,4173.59,4188.97,4193.46,3558,8191,8153,0,16.0085,
19,0,4197.95,4197.44,4167.82,4185.26,4182.18,4172.18,4168.33,4186.92,4197.44,4189.1,4190.9,4172.44,4189.1,4193.33,3524,8192,8159,0,16.0125,
20,0,4196.79,4193.33,4165.64,4186.92,4182.31,4169.23,4166.67,4187.31,4194.49,4189.74,4188.85,4168.85,4187.31,4192.18,3576,8192,8159,0,16.0164,
21,0,4193.08,4189.1,4160.26,4185.51,4183.72,4169.62,4167.18,4185.9,4190.51,4190.38,4184.87,4164.36,4184.1,4189.87,3261,8190,8153,0,16.0203,
22,0,4188.72,4186.15,4156.67,4181.03,4184.49,4170.9,4168.59,4182.05,4185.77,4187.82,4179.36,4160.13,4179.62,4185.9,3558,8190,8153,0,16.0243,
23,0,4184.87,4184.74,4157.82,4175.77,4182.18,4170.51,4169.62,4176.54,4181.54,4180.77,4173.85,4156.79,4174.36,4180.13,3524,8191,8163,0,16.0282,
24,0,4182.44,4183.97,4160.77,4172.69,4177.56,4168.46,4170.51,4171.67,4179.23,4171.67,4169.62,4154.23,4169.23,4174.1,3576,8191,8163,0,16.0322,
25,0,4181.03,4182.82,4161.54,4173.33,4173.59,4167.31,4172.05,4169.74,4179.62,4165.38,4167.44,4152.69,4165.64,4170.51,3261,8180,8166,0,16.0361,
26,0,4180.77,4181.67,4159.62,4177.31,4173.59,4169.36,4175.13,4171.67,4181.79,4165.77,4167.56,4152.56,4164.87,4171.41,3558,8180,8166,0,16.04,
27,0,4182.44,4182.31,4158.72,4183.08,4178.21,4174.62,4179.62,4176.67,4184.49,4172.44,4170.13,4154.62,4167.18,4176.41,3524,8181,8173,0,16.0439,
28,0,4185.9,4185.9,4161.92,4188.46,4184.1,4180.64,4184.49,4182.69,4186.15,4180.77,4174.1,4158.85,4171.28,4182.95,3576,8181,8173,0,16.0478,
29,0,4189.36,4190.38,4167.56,4191.03,4187.18,4183.97,4187.82,4186.92,4186.54,4185.64,4178.21,4164.62,4174.74,4187.95,3261,8190,8165,0,16.0518,
30,0,4190.38,4191.67,4171.67,4189.62,4184.74,4183.33,4188.46,4187.31,4186.28,4183.97,4181.15,4169.87,4175.38,4188.85,3558,8190,8165,0,16.0557,
31,0,4187.82,4186.79,4172.31,4184.49,4177.95,4178.85,4186.15,4183.72,4185.64,4177.44,4182.05,4172.44,4172.95,4185.9,3524,8189,8178,0,16.0596,
32,0,4182.95,4177.69,4171.41,4177.95,4170.64,4173.08,4181.67,4178.21,4184.62,4170.51,4180.26,4171.28,4169.87,4181.67,0,8189,8178,0,16.0636,
33,0,4179.23,4169.49,4170.77,4173.33,4166.67,4168.72,4176.03,4173.59,4183.46,4167.56,4176.79,4167.31,4168.72,4179.74,0,8189,8182,0,16.0675,
34,0,4179.1,4167.82,4170.26,4172.44,4166.92,4166.92,4170.51,4171.54,4182.95,4169.49,4173.33,4162.18,4170.51,4181.54,0,8189,8182,0,16.0715,
35,0,4182.56,4173.59,4168.33,4175.51,4169.62,4167.56,4166.54,4172.18,4183.08,4173.21,4171.03,4157.69,4173.08,4184.74,0,8176,8180,0,16.0754,
36,0,4187.56,4182.95,4165.51,4180.64,4172.05,4168.97,4165.26,4173.59,4182.44,4174.23,4170.13,4154.87,4173.33,4185.51,0,8176,8180,0,16.0793,
37,0,4190.9,4189.62,4164.62,4184.74,4172.95,4170.13,4166.54,4174.23,4179.74,4171.41,4169.36,4153.59,4169.62,4182.31,0,8186,8179,0,16.0833,
38,0,4191.15,4190.38,4166.92,4185.9,4173.08,4170.38,4168.59,4174.1,4175.64,4167.05,4167.82,4153.33,4162.95,4177.05,0,8186,8179,0,16.0872,
39,0,4189.36,4186.41,4170.38,4184.1,4174.49,4170.13,4169.87,4174.49,4172.44,4164.62,4165.77,4153.33,4157.69,4173.97,0,8184,8178,0,16.0912,
40,0,4187.82,4182.31,4171.67,4181.54,4178.21,4170.64,4170.13,4176.79,4172.31,4165.38,4165,4153.46,4156.92,4175.26,0,8184,8178,0,16.0951,
41,0,4188.33,4181.41,4170.26,4180.77,4182.56,4172.69,4170.26,4180.64,4175.13,4168.33,4166.15,4153.08,4160.26,4179.23,0,8191,8173,0,16.099,
42,0,4189.74,4183.46,4168.72,4182.56,4185.13,4175.51,4171.67,4183.46,4178.85,4170.64,4168.21,4152.05,4163.97,4182.44,0,8191,8173,0,16.103,
43,0,4190.26,4185.51,4168.72,4185.26,4184.74,4178.33,4174.62,4183.33,4180.51,4170.38,4168.46,4150.26,4163.97,4181.79,0,8180,8183,0,16.1069,
44,0,4188.72,4185.26,4169.36,4186.28,4182.82,4180.64,4178.59,4180.64,4179.36,4167.56,4166.54,4148.33,4159.49,4177.31,0,8180,8183,0,16.1109,
45,0,4185.9,4183.33,4168.21,4185,4181.79,4182.82,4182.95,4177.95,4177.05,4164.87,4164.23,4147.44,4154.1,4171.28,0,8189,8182,0,16.1148,
46,0,4183.59,4182.05,4165.13,4182.44,4183.08,4185.13,4186.67,4178.21,4176.79,4165.13,4164.49,4148.59,4152.69,4167.82,0,8189,8182,0,16.1187,
47,0,4182.95,4183.33,4162.44,4180.77,4185.64,4186.92,4188.59,4181.54,4180.64,4168.72,4167.56,4151.92,4157.31,4168.97,0,8175,8175,0,16.1227,
48,0,4184.23,4186.41,4162.56,4180.51,4187.44,4186.79,4187.82,4185.9,4187.18,4173.72,4170.9,4155.77,4165,4173.85,0,8175,8175,0,16.1266,
49,0,4186.28,4188.85,4164.1,4181.15,4187.18,4183.97,4183.59,4188.08,4192.56,4177.18,4172.05,4157.95,4170.9,4179.1,0,8183,8177,0,16.1306,
50,0,4188.21,4189.87,4163.97,4181.67,4185,4178.97,4177.31,4187.18,4193.97,4177.44,4171.15,4157.44,4172.18,4182.31,0,8183,8177,0,16.1345,
51,0,4190,4190.9,4162.18,4182.31,4182.69,4173.85,4171.54,4184.36,4191.67,4176.15,4170.26,4155.26,4170.38,4183.33,0,8180,8157,0,16.1384,
52,0,4192.31,4193.59,4162.05,4183.46,4181.79,4170.77,4168.33,4181.92,4187.82,4175.64,4171.67,4154.1,4169.49,4184.1,0,8180,8157,0,16.1424,
53,0,4195.38,4197.82,4166.28,4185.13,4182.95,4170.38,4167.95,4181.28,4185.38,4177.69,4175.77,4156.15,4172.05,4185.77,0,8186,8162,0,16.1463,
54,0,4198.59,4201.79,4172.69,4186.67,4185.26,4171.54,4168.72,4182.31,4185.26,4181.41,4181.41,4161.28,4176.92,4187.82,0,8186,8162,0,16.1503,
55,0,4200,4204.23,4176.03,4187.69,4186.79,4172.18,4168.97,4184.36,4186.54,4184.49,4186.41,4166.92,4181.15,4188.59,0,8187,8164,0,16.1542,
56,0,4198.59,4204.74,4173.85,4187.95,4186.28,4171.28,4168.33,4186.54,4187.95,4185.13,4188.46,4169.87,4182.56,4187.56,0,8187,8164,0,16.1581,
57,0,4194.74,4202.95,4169.1,4187.69,4183.85,4169.49,4168.08,4188.08,4189.36,4183.46,4186.54,4168.08,4180.51,4185.64,0,8195,8159,0,16.1621,
58,0,4190.38,4198.97,4166.67,4186.67,4181.54,4168.85,4170,4188.08,4191.41,4181.41,4182.31,4162.31,4176.03,4183.97,0,8195,8159,0,16.166,
59,0,4187.69,4193.85,4167.95,4185.13,4181.15,4171.15,4174.87,4186.79,4194.62,4180.9,4178.21,4155.9,4171.03,4183.33,0,8177,8164,0,16.17,
60,0,4187.56,4189.23,4169.49,4183.21,4182.82,4176.28,4181.54,4185.51,4197.69,4182.82,4176.54,4152.18,4167.82,4183.08,0,8177,8164,0,16.1739,
61,0,4190.26,4187.05,4168.72,4181.79,4184.74,4182.05,4187.18,4186.03,4199.87,4185.9,4178.08,4153.46,4167.82,4183.08,0,8176,8157,0,16.1778,
62,0,4194.62,4188.21,4166.67,4181.54,4185.26,4186.03,4189.36,4189.36,4201.03,4188.21,4181.67,4158.85,4171.03,4183.46,0,8176,8157,0,16.1818,
63,0,4198.97,4192.05,4166.03,4182.95,4184.36,4186.92,4188.08,4193.72,4201.67,4188.33,4185.77,4165.64,4176.28,4184.74,0,8204,8144,0,16.1857,
64,0,4202.05,4196.92,4167.44,4185.26,4183.33,4186.15,4185.38,4196.54,4202.18,4187.05,4188.46,4170.51,4181.54,4186.79,0,8204,8144,0,16.1897,
65,0,4202.69,4200.38,4168.59,4187.05,4183.72,4185.51,4184.1,4196.03,4202.05,4186.03,4188.97,4171.54,4185,4189.23,0,8201,8149,0,16.1936,
66,0,4201.28,4201.28,4167.69,4187.05,4185.51,4185.9,4185,4192.18,4200.51,4186.54,4187.69,4169.49,4185.77,4191.28,0,8201,8149,0,16.1975,
67,0,4199.87,4200.64,4166.67,4186.15,4187.82,4186.79,4186.92,4187.44,4196.92,4187.69,4186.15,4167.18,4184.62,4192.56,0,8181,8150,0,16.2015,
68,0,4200.38,4199.87,4168.21,4186.03,4189.23,4187.44,4188.21,4183.97,4192.05,4187.82,4185.51,4167.05,4183.33,4192.82,0,8181,8150,0,16.2054,
69,0,4202.69,4199.87,4172.05,4187.95,4189.1,4187.18,4188.21,4182.56,4187.56,4186.28,4186.54,4168.85,4183.21,4192.05,0,8192,8149,0,16.2094,
70,0,4204.36,4200.77,4174.74,4191.67,4188.08,4186.41,4187.82,4182.56,4185,4183.97,4188.21,4170.38,4184.74,4190.64,0,8192,8149,0,16.2133,
71,0,4203.08,4201.92,4173.59,4195.26,4187.82,4185.77,4188.21,4182.69,4184.87,4182.95,4189.36,4169.49,4186.67,4188.97,0,8194,8151,0,16.2172,
72,0,4199.23,4202.05,4170.64,4196.28,4188.97,4185.77,4190.26,4182.82,4186.28,4183.46,4188.85,4165.51,4187.56,4187.18,0,8194,8151,0,16.2212,
73,0,4195,4200.9,4169.74,4193.85,4190.77,4186.54,4193.21,4182.95,4187.56,4184.49,4186.92,4160.51,4186.67,4185.77,0,8202,8147,0,16.2251,
74,0,4192.69,4198.85,4171.92,4189.62,4191.15,4187.44,4195.9,4182.69,4187.31,4184.36,4184.74,4156.67,4183.72,4185,0,8202,8147,0,16.2291,
75,0,4192.69,4196.79,4173.97,4186.41,4189.62,4187.69,4197.44,4181.79,4185.13,4181.92,4182.56,4155.26,4180.13,4184.87,0,8184,8153,0,16.233,
76,0,4194.23,4195.64,4173.21,4185.9,4186.79,4187.05,4197.31,4180.64,4182.31,4177.56,4180.26,4155.64,4176.54,4184.36,0,8184,8153,0,16.2369,
77,0,4196.41,4195.26,4170.51,4187.31,4184.62,4185.51,4196.15,4180.38,4180.77,4173.46,4178.33,4157.18,4173.97,4183.46,0,8187,8177,0,16.2409,
78,0,4198.46,4195.77,4169.49,4188.72,4184.62,4184.1,4195.77,4182.56,4182.05,4172.56,4178.21,4160.38,4173.21,4183.08,0,8187,8177,0,16.2448,
79,0,4200.51,4197.05,4171.41,4189.36,4186.54,4183.72,4197.56,4187.95,4186.67,4176.15,4181.54,4165.9,4175.26,4184.36,0,8192,8166,0,16.2488,
80,0,4202.31,4198.72,4173.72,4189.87,4188.97,4184.62,4201.15,4195.13,4193.85,4183.46,4187.82,4172.69,4180.13,4188.33,0,8192,8166,0,16.2527,
81,0,4203.72,4200.38,4173.33,4190.77,4190.64,4186.15,4203.85,4201.03,4201.41,4191.92,4195,4178.08,4186.54,4193.97,0,8181,8161,0,16.2566,
82,0,4204.23,4201.54,4171.15,4191.79,4190.64,4187.31,4203.21,4203.08,4206.79,4198.97,4200.64,4180.13,4192.69,4199.1,0,8181,8161,0,16.2606,
83,0,4204.36,4202.18,4170.26,4192.05,4189.36,4187.31,4198.85,4202.18,4208.59,4203.33,4203.59,4179.23,4197.31,4202.31,0,8184,8162,0,16.2645,
84,0,4204.36,4202.69,4171.92,4191.28,4187.95,4186.41,4193.46,4200.64,4207.56,4205.9,4204.36,4177.44,4200,4203.21,0,8184,8162,0,16.2685,
85,0,4204.87,4203.21,4173.85,4190.38,4187.31,4185.26,4190.51,4200.38,4206.03,4207.44,4203.97,4176.54,4201.41,4203.21,0,8168,8165,0,16.2724,
86,0,4205.9,4204.49,4173.59,4190.26,4187.82,4184.74,4191.03,4201.03,4205.9,4208.46,4203.59,4177.44,4201.67,4203.72,0,8168,8165,0,16.2763,
87,0,4206.92,4205.9,4171.54,4191.54,4188.59,4185.26,4194.1,4200.77,4206.54,4207.69,4202.56,4178.72,4200.26,4204.74,0,8181,8157,0,16.2803,
88,0,4207.31,4206.54,4170.26,4192.82,4188.33,4186.15,4196.79,4198.08,4205.64,4203.85,4200,4178.08,4197.05,4204.62,0,8181,8157,0,16.2842,
89,0,4206.41,4205,4171.03,4192.69,4186.41,4186.41,4196.41,4192.69,4201.28,4196.28,4194.62,4173.46,4191.41,4201.28,0,8173,8163,0,16.2882,
90,0,4203.33,4201.28,4171.54,4190.26,4183.85,4185.38,4192.31,4186.03,4194.23,4186.79,4186.79,4165.64,4183.97,4194.1,0,8173,8163,0,16.2921,
91,0,4198.72,4196.67,4169.23,4186.28,4182.18,4183.46,4186.41,4179.74,4187.31,4177.82,4178.21,4157.18,4176.54,4185.51,0,8182,8158,0,16.296,
92,0,4194.36,4193.21,4165.13,4182.69,4182.31,4181.67,4182.18,4175,4183.21,4171.41,4171.15,4151.28,4171.41,4179.23,0,8182,8158,0,16.3,
93,0,4191.67,4192.31,4162.95,4181.15,4183.72,4181.28,4182.31,4172.56,4182.05,4168.08,4167.44,4149.23,4169.74,4177.69,0,8177,8168,0,16.3039,
94,0,4191.41,4194.1,4164.23,4181.79,4185,4182.31,4187.05,4172.69,4182.05,4167.44,4167.31,4149.87,4171.03,4179.74,0,8177,8168,0,16.3079,
19,0,4167.18,4156.15,4153.08,4165.77,4167.31,4166.67,4173.85,4170.38,4168.97,4168.72,4170.64,4146.41,4175.38,4171.28,3524,8177,8168,0,17.021,
20,0,4168.72,4162.05,4157.31,4167.69,4167.44,4165.64,4170.9,4169.49,4168.21,4168.33,4173.46,4148.08,4180.64,4176.28,3576,8177,8168,0,17.025,
21,0,4170.38,4167.18,4163.59,4169.74,4167.31,4164.36,4168.97,4169.87,4169.62,4167.95,4175.77,4149.1,4183.59,4180.64,3260,8179,8178,0,17.0289,
22,0,4171.15,4167.82,4167.05,4170.13,4167.18,4163.21,4168.85,4170.77,4171.03,4167.69,4175.9,4149.23,4181.79,4181.41,3557,8179,8178,0,17.0328,
23,0,4170.38,4163.59,4165,4168.08,4166.79,4162.95,4169.49,4171.03,4170.64,4167.56,4174.23,4148.97,4176.28,4178.59,3524,8180,8158,0,17.0368,
24,0,4168.33,4157.95,4160.13,4163.72,4166.41,4164.1,4169.74,4170.26,4168.97,4167.44,4172.44,4149.36,4170.64,4174.49,3576,8180,8158,0,17.0407,
25,0,4165.9,4154.49,4157.05,4158.59,4166.15,4166.15,4168.97,4169.62,4167.82,4167.31,4171.67,4151.15,4168.33,4172.69,3260,8179,8160,0,17.0447,
26,0,4164.62,4154.36,4157.69,4154.74,4166.28,4168.08,4167.82,4170.38,4169.23,4167.69,4172.31,4153.59,4170.26,4174.49,3557,8179,8160,0,17.0486,
27,0,4165,4156.54,4159.49,4153.72,4166.92,4168.85,4167.82,4172.82,4173.46,4168.85,4173.85,4154.36,4174.62,4178.33,3524,8169,8170,0,17.0525,
28,0,4166.67,4158.46,4159.74,4155.13,4167.95,4168.72,4170.26,4176.28,4178.59,4171.03,4175.38,4152.95,4178.59,4181.67,3576,8169,8170,0,17.0565,
29,0,4168.21,4158.85,4158.97,4157.56,4169.23,4169.49,4174.87,4179.87,4181.79,4174.36,4177.18,4150.77,4180.9,4182.95,3260,8174,8162,0,17.0604,
30,0,4168.97,4158.08,4159.49,4159.1,4170.64,4172.18,4180.13,4182.56,4182.18,4178.72,4179.62,4149.74,4182.18,4182.82,3557,8174,8162,0,17.0644,
31,0,4169.23,4156.79,4161.67,4158.85,4171.67,4176.54,4183.97,4184.49,4181.79,4183.21,4182.44,4149.87,4183.59,4182.31,3524,8185,8161,0,17.0683,
32,0,4169.36,4155.64,4162.56,4157.44,4172.05,4181.03,4185.64,4185.51,4182.69,4186.03,4184.49,4150.13,4185,4182.44,0,8185,8161,0,17.0722,
33,0,4169.49,4155,4160.13,4156.03,4172.05,4183.59,4185.51,4186.28,4185.26,4185.38,4184.36,4149.49,4184.49,4183.08,0,8176,8160,0,17.0762,
34,0,4168.72,4154.74,4156.41,4155.51,4171.92,4183.59,4185.26,4186.67,4187.56,4181.67,4181.41,4148.08,4181.28,4182.44,0,8176,8160,0,17.0801,
35,0,4165.9,4154.23,4154.49,4155.51,4171.54,4181.28,4185.38,4186.15,4186.79,4176.54,4176.92,4146.15,4176.15,4179.1,0,8181,8152,0,17.0841,
36,0,4160.9,4153.33,4154.87,4155.13,4170.9,4177.56,4185,4184.1,4182.18,4171.67,4172.31,4143.21,4170.64,4171.79,0,8181,8152,0,17.088,
37,0,4154.87,4152.31,4154.62,4153.72,4169.87,4173.85,4182.18,4180.51,4175.38,4168.08,4168.72,4138.85,4166.41,4162.31,0,8173,8161,0,17.0919,
38,0,4150.51,4151.54,4152.18,4152.31,4169.62,4171.41,4177.18,4176.41,4169.62,4166.28,4166.15,4134.62,4163.97,4153.97,0,8173,8161,0,17.0959,
39,0,4150,4152.31,4150,4152.56,4170.77,4171.92,4172.44,4173.08,4167.31,4166.15,4164.74,4132.56,4162.95,4151.03,0,8184,8158,0,17.0998,
40,0,4153.97,4155.26,4151.28,4156.03,4173.21,4175,4171.41,4171.79,4168.59,4166.79,4164.87,4133.72,4163.72,4155,0,8184,8158,0,17.1037,
41,0,4160.77,4160.51,4155.51,4162.31,4175.64,4179.1,4175,4171.92,4171.54,4167.31,4166.15,4137.18,4166.03,4162.95,0,8191,8146,0,17.1076,
42,0,4167.31,4166.92,4158.33,4168.85,4176.28,4181.41,4180.51,4172.56,4173.72,4167.18,4167.69,4140,4168.59,4169.74,0,8191,8146,0,17.1115,
43,0,4171.03,4172.05,4157.18,4172.05,4174.87,4180.9,4183.59,4172.56,4173.85,4166.15,4167.69,4139.62,4168.85,4171.03,0,8183,8145,0,17.1155,
44,0,4170.9,4173.46,4153.85,4170.26,4172.05,4177.82,4181.54,4171.92,4172.05,4164.23,4165,4135.9,4165,4165.77,0,8183,8145,0,17.1194,
45,0,4168.46,4170.64,4152.95,4165.26,4169.36,4173.33,4175.64,4171.03,4169.87,4161.92,4160.38,4131.15,4157.95,4157.69,0,8182,8160,0,17.1234,
46,0,4166.28,4165.64,4155.77,4161.03,4167.31,4168.97,4169.49,4170.26,4168.59,4160.26,4156.41,4128.21,4151.54,4152.05,0,8182,8160,0,17.1273,
47,0,4166.15,4162.44,4159.1,4160.38,4166.28,4166.54,4166.15,4170.13,4169.74,4160.9,4156.67,4128.72,4150.51,4152.69,0,8195,8141,0,17.1312,
48,0,4168.21,4164.1,4159.62,4163.85,4166.67,4167.69,4166.79,4171.28,4173.33,4165.13,4163.08,4133.08,4157.95,4160.13,0,8195,8141,0,17.1352,
49,0,4172.18,4170.77,4158.46,4168.97,4169.62,4171.79,4169.62,4174.49,4178.85,4172.56,4174.62,4140.51,4172.18,4171.15,0,8201,8141,0,17.1391,
50,0,4177.95,4179.87,4160.26,4173.33,4174.1,4176.41,4172.05,4178.72,4184.49,4181.03,4187.31,4148.59,4188.21,4181.92,0,8201,8141,0,17.1431,
51,0,4184.74,4187.18,4165.9,4175.38,4177.82,4179.1,4172.31,4182.31,4188.59,4187.31,4196.79,4154.87,4200.13,4189.62,0,8196,8159,0,17.147,
52,0,4191.15,4190.26,4171.54,4175.13,4179.49,4178.59,4170.13,4183.72,4189.74,4190,4200.51,4158.21,4205.26,4194.23,0,8196,8159,0,17.1509,
53,0,4195.51,4188.97,4172.31,4174.23,4179.36,4176.03,4167.05,4182.95,4188.33,4189.23,4199.23,4158.97,4204.87,4196.67,0,8194,8148,0,17.1549,
54,0,4197.05,4185.9,4168.46,4173.97,4179.49,4173.59,4165.13,4181.03,4186.15,4186.67,4195.26,4158.72,4202.18,4197.95,0,8194,8148,0,17.1588,
55,0,4196.03,4183.08,4164.74,4174.62,4180.64,4173.46,4165.64,4179.49,4184.62,4184.23,4191.28,4158.21,4199.62,4197.69,0,8198,8144,0,17.1628,
56,0,4193.21,4181.54,4164.87,4174.87,4181.28,4176.03,4168.85,4179.49,4184.23,4182.69,4188.59,4157.44,4196.92,4195.38,0,8198,8144,0,17.1667,
57,0,4189.23,4180.26,4167.31,4173.97,4180,4180.64,4174.36,4181.67,4184.62,4182.31,4187.44,4156.28,4193.21,4191.54,0,8195,8160,0,17.1706,
58,0,4185.64,4178.08,4168.21,4171.92,4176.92,4185.26,4181.28,4185.26,4185.77,4183.08,4187.44,4154.74,4189.23,4187.56,0,8195,8160,0,17.1746,
59,0,4183.59,4174.62,4166.41,4169.87,4174.62,4188.08,4187.44,4188.85,4188.59,4184.87,4188.33,4153.72,4187.31,4185.51,0,8188,8172,0,17.1785,
60,0,4183.59,4170.9,4165,4168.72,4175,4188.33,4190.9,4190.9,4193.08,4186.79,4190,4153.59,4188.72,4186.15,0,8188,8172,0,17.1825,
61,0,4185.38,4168.72,4166.15,4168.85,4177.95,4186.92,4191.28,4190.9,4197.69,4188.21,4191.67,4154.36,4192.69,4188.33,0,8189,8160,0,17.1864,
62,0,4187.18,4168.72,4168.21,4169.62,4181.28,4185.64,4189.62,4189.23,4199.87,4188.59,4192.18,4155.13,4196.28,4190,0,8189,8160,0,17.1903,
63,0,4187.18,4169.74,4168.21,4170.38,4182.31,4185.26,4187.69,4187.31,4198.33,4188.46,4190.77,4154.87,4197.31,4189.23,0,8190,8156,0,17.1943,
64,0,4185,4170.26,4165.9,4170.13,4180.13,4185.51,4186.28,4185.64,4193.85,4187.82,4188.59,4153.59,4195.51,4186.41,0,8190,8156,0,17.1982,
65,0,4182.56,4169.49,4164.23,4168.85,4176.41,4185.51,4185.51,4184.74,4189.74,4187.18,4187.31,4152.44,4193.21,4183.85,0,8184,8153,0,17.2022,
66,0,4182.05,4168.33,4165.64,4167.69,4174.62,4185,4184.87,4184.49,4188.46,4186.67,4188.59,4151.79,4192.82,4183.33,0,8184,8153,0,17.2061,
67,0,4183.97,4168.85,4169.1,4168.21,4177.05,4184.87,4183.97,4185.38,4190.64,4187.05,4192.31,4152.18,4195,4184.87,0,8180,8160,0,17.2101,
68,0,4186.79,4171.79,4171.54,4171.67,4182.82,4185.26,4183.21,4187.05,4195.13,4188.46,4196.54,4153.21,4198.46,4187.05,0,8180,8160,0,17.214,
69,0,4189.36,4176.67,4171.92,4176.92,4188.21,4185.77,4182.82,4188.33,4199.23,4190.26,4199.36,4154.1,4200.9,4188.33,0,8185,8157,0,17.2179,
70,0,4190.38,4181.67,4172.18,4181.03,4189.87,4186.15,4182.82,4188.46,4201.28,4191.79,4200.13,4154.74,4201.54,4188.46,0,8185,8157,0,17.2219,
71,0,4190,4184.74,4173.08,4182.05,4187.69,4186.67,4183.33,4187.56,4200.51,4192.69,4199.23,4154.87,4201.54,4187.95,0,8183,8161,0,17.2258,
72,0,4188.46,4185,4173.33,4180,4184.87,4187.31,4184.62,4187.31,4198.33,4192.69,4197.95,4155,4201.92,4187.44,0,8183,8161,0,17.2298,
73,0,4186.28,4182.31,4170.9,4176.03,4183.85,4187.44,4186.03,4187.95,4195.77,4191.67,4196.54,4154.87,4202.18,4186.79,0,8191,8149,0,17.2337,
74,0,4184.1,4177.69,4166.67,4171.92,4184.49,4186.92,4186.41,4188.72,4193.85,4189.49,4193.97,4154.23,4200.77,4185.77,0,8191,8149,0,17.2376,
75,0,4182.56,4172.95,4164.1,4169.36,4184.74,4185.77,4185,4188.97,4192.69,4186.54,4190,4152.95,4196.92,4183.97,0,8188,8153,0,17.2416,
76,0,4182.69,4170,4165.13,4169.23,4183.59,4184.87,4182.82,4188.72,4192.69,4184.23,4185.77,4151.03,4191.92,4182.44,0,8188,8153,0,17.2455,
77,0,4185,4169.74,4167.44,4171.79,4182.56,4185,4182.69,4189.1,4194.74,4184.23,4183.85,4149.36,4188.46,4181.79,0,8189,8149,0,17.2495,
78,0,4188.72,4172.18,4167.44,4175.77,4183.33,4186.41,4186.03,4190.64,4198.72,4187.69,4186.03,4148.85,4189.23,4182.56,0,8189,8149,0,17.2534,
79,0,4192.05,4175.77,4164.87,4178.72,4186.03,4188.59,4191.92,4192.82,4203.33,4193.59,4191.79,4149.87,4194.1,4184.49,0,8191,8142,0,17.2573,
80,0,4193.33,4178.85,4163.21,4178.72,4187.95,4191.03,4196.67,4194.23,4205.77,4199.36,4198.33,4152.56,4199.87,4186.67,0,8191,8142,0,17.2613,
81,0,4192.44,4180.64,4165.26,4176.28,4187.31,4193.59,4197.56,4194.36,4204.87,4202.05,4202.31,4156.03,4203.46,4188.72,0,8171,8141,0,17.2652,
82,0,4190.77,4181.79,4169.74,4173.72,4185,4196.03,4194.1,4192.69,4201.28,4200.64,4202.05,4158.72,4203.97,4190.26,0,8171,8141,0,17.2692,
83,0,4189.36,4182.95,4172.31,4173.08,4183.59,4197.95,4189.23,4189.62,4197.18,4196.54,4198.46,4159.74,4202.69,4191.15,0,8170,8141,0,17.2731,
84,0,4188.97,4183.72,4170.77,4174.62,4184.36,4198.21,4186.28,4186.28,4193.85,4191.92,4193.72,4158.97,4201.03,4191.15,0,8170,8141,0,17.277,
85,0,4189.36,4183.46,4167.18,4177.18,4186.15,4196.41,4186.92,4184.1,4190.9,4188.08,4189.87,4157.05,4199.49,4190.13,0,8178,8150,0,17.281,
86,0,4189.87,4182.05,4165,4178.97,4186.28,4192.82,4190.13,4184.1,4188.21,4185,4187.44,4155,4197.69,4188.59,0,8178,8150,0,17.2849,
87,0,4189.36,4180.26,4165.13,4179.1,4183.21,4188.72,4192.56,4185.51,4185.51,4182.18,4186.41,4153.72,4195.26,4187.56,0,8179,8157,0,17.2889,
88,0,4187.69,4178.85,4165.51,4177.18,4177.95,4185.9,4191.92,4185.9,4183.59,4179.62,4186.54,4153.46,4192.95,4187.56,0,8179,8157,0,17.2928,
89,0,4185.9,4178.46,4164.49,4174.23,4172.82,4184.62,4187.82,4183.21,4183.21,4177.44,4187.18,4153.72,4191.79,4188.46,0,8187,8156,0,17.2967,
90,0,4184.74,4178.97,4163.33,4171.79,4170.51,4184.62,4182.82,4177.18,4184.1,4176.41,4187.69,4153.97,4192.31,4189.36,0,8187,8156,0,17.3007,
91,0,4184.74,4180.26,4163.85,4171.41,4172.05,4184.74,4179.62,4171.15,4184.74,4176.92,4187.56,4153.72,4193.72,4189.62,0,8179,8157,0,17.3046,
92,0,4185.26,4181.79,4164.87,4172.82,4176.15,4184.49,4179.62,4168.59,4184.49,4179.23,4187.05,4152.31,4195.38,4188.85,0,8179,8157,0,17.3086,
93,0,4185.38,4183.08,4163.21,4174.74,4180.64,4183.97,4181.92,4171.15,4183.59,4182.31,4186.92,4150.26,4196.67,4187.69,0,8181,8145,0,17.3125,
94,0,4185,4183.97,4158.08,4175.38,4183.59,4184.1,4184.62,4177.18,4183.46,4185.13,4187.44,4148.72,4197.82,4186.67,0,8181,8145,0,17.3164,
95,0,4184.62,4184.36,4153.33,4174.62,4184.36,4185,4186.28,4183.59,4185.38,4186.54,4188.46,4148.97,4198.33,4186.41,0,8178,8158,0,17.3204,
96,0,4185,4184.36,4153.33,4173.33,4183.33,4185.9,4186.79,4187.69,4189.49,4186.67,4189.1,4151.03,4197.82,4186.41,0,8178,8158,0,17.3243,
97,0,4185.9,4184.23,4157.69,4173.08,4181.28,4186.54,4186.67,4188.33,4193.72,4186.54,4188.72,4153.46,4195.77,4185.64,0,8181,8159,0,17.3283,
98,0,4186.41,4184.49,4161.92,4174.36,4178.97,4186.54,4186.15,4187.18,4195.9,4187.31,4187.69,4155,4193.46,4184.23,0,8181,8159,0,17.3322,
99,0,4186.54,4185.64,4163.21,4176.28,4176.79,4186.41,4185.51,4186.03,4194.62,4188.85,4187.44,4155.13,4192.05,4183.59,0,8188,8154,0,17.3361,
100,0,4186.54,4186.54,4162.82,4177.69,4174.49,4185.9,4185.13,4186.15,4190.64,4189.1,4188.33,4154.62,4191.54,4184.74,0,8188,8154,0,17.3401,
101,0,4186.28,4185.51,4164.23,4177.44,4172.18,4185,4184.74,4186.79,4186.03,4186.28,4189.49,4154.74,4190.26,4186.28,0,8183,8163,0,17.344,
102,0,4185.51,4181.92,4166.67,4175.77,4170.77,4183.72,4184.23,4186.67,4182.82,4180.51,4188.85,4155.51,4187.18,4186.03,0,8183,8163,0,17.348,
103,0,4184.36,4177.31,4166.54,4174.36,4171.67,4182.18,4183.97,4185.26,4181.92,4174.36,4186.03,4156.28,4183.46,4183.85,0,8194,8155,0,17.3519,
104,0,4183.97,4174.62,4162.82,4175,4174.62,4181.54,4185,4183.33,4183.21,4171.41,4182.95,4156.15,4182.05,4181.67,0,8194,8155,0,17.3558,
105,0,4185.51,4175.77,4159.1,4178.46,4178.72,4182.44,4188.46,4182.31,4185.9,4173.33,4182.69,4155.26,4185,4182.44,0,8188,8161,0,17.3598,
106,0,4188.97,4179.74,4159.62,4182.95,4181.92,4184.62,4194.62,4182.44,4188.85,4178.59,4186.67,4155,4192.31,4186.79,0,8188,8161,0,17.3637,
29,0,4173.72,4184.74,4161.67,4170.9,4170.51,4165.38,4166.92,4181.54,4172.69,4170.26,4160.77,4143.08,4156.28,4160.26,3260,8179,8161,0,18.069,
30,0,4173.08,4185.26,4161.03,4170.9,4167.69,4161.41,4162.95,4178.08,4171.92,4169.23,4160.51,4145.13,4157.31,4159.62,3557,8179,8161,0,18.0729,
31,0,4170.51,4184.87,4158.72,4170,4168.21,4159.49,4157.95,4175,4170.64,4168.97,4160.51,4144.62,4157.95,4158.08,3380,8182,8158,0,18.0769,
32,0,4168.08,4183.85,4157.82,4168.72,4172.44,4160.77,4153.97,4174.23,4169.1,4169.23,4160.13,4142.05,4157.31,4156.79,0,8182,8158,0,18.0808,
33,0,4167.95,4182.95,4160.38,4167.82,4178.08,4164.36,4153.33,4176.54,4168.21,4169.62,4159.1,4140,4154.87,4155.9,0,8176,8148,0,18.0848,
34,0,4170.9,4183.08,4165,4168.33,4182.56,4168.85,4156.41,4181.15,4168.59,4170,4158.21,4140.77,4151.67,4156.03,0,8176,8148,0,18.0887,
35,0,4175.38,4184.36,4168.97,4170.26,4184.49,4171.79,4162.05,4184.87,4170.13,4171.15,4159.49,4145.26,4150.38,4157.82,0,8177,8151,0,18.0926,
36,0,4179.23,4186.03,4172.18,4172.69,4183.97,4172.05,4167.44,4184.74,4171.15,4172.31,4163.21,4150.77,4152.56,4161.15,0,8177,8151,0,18.0966,
37,0,4180.77,4186.67,4176.79,4174.49,4182.18,4170.38,4170.13,4180.77,4170.13,4172.05,4167.44,4154.36,4157.44,4165.26,0,8178,8158,0,18.1005,
38,0,4180.26,4185.13,4183.72,4174.49,4180.38,4168.85,4169.49,4175.64,4166.92,4169.36,4169.49,4153.72,4162.69,4168.46,0,8178,8158,0,18.1045,
39,0,4178.21,4181.79,4190.26,4172.82,4179.23,4168.59,4167.31,4172.82,4162.82,4164.74,4167.95,4149.49,4166.15,4169.49,0,8183,8158,0,18.1084,
40,0,4175.51,4177.56,4191.79,4170.26,4178.97,4169.87,4166.03,4173.72,4159.87,4160.64,4163.85,4143.97,4167.69,4168.33,0,8183,8158,0,18.1123,
41,0,4173.08,4174.49,4188.08,4168.72,4179.36,4171.54,4167.31,4177.44,4159.49,4159.87,4160.13,4140.38,4168.72,4166.79,0,8194,8156,0,18.1163,
42,0,4172.69,4174.62,4183.85,4169.36,4180.26,4172.69,4171.28,4181.79,4162.31,4163.21,4159.87,4140.9,4170.9,4166.92,0,8194,8156,0,18.1202,
43,0,4175.13,4178.21,4183.97,4172.05,4181.54,4173.21,4176.92,4185.26,4167.82,4168.59,4164.1,4145.38,4174.1,4169.36,0,8191,8150,0,18.1242,
44,0,4178.97,4183.72,4187.95,4174.87,4183.21,4174.1,4182.18,4188.08,4174.49,4173.21,4170.13,4151.03,4176.67,4172.95,0,8191,8150,0,18.1281,
45,0,4181.67,4187.82,4190.9,4175.9,4184.74,4175.64,4185,4190.38,4180.13,4175.38,4173.97,4154.1,4176.79,4175.13,0,8190,8148,0,18.132,
46,0,4181.79,4187.95,4189.49,4174.1,4185.51,4176.28,4184.1,4192.31,4183.08,4175.38,4173.72,4152.82,4174.23,4174.49,0,8190,8148,0,18.136,
47,0,4180.13,4184.62,4185.9,4170.51,4185,4174.87,4180.13,4193.33,4183.21,4174.87,4170.64,4148.59,4170.9,4171.67,0,8196,8150,0,18.1399,
48,0,4178.97,4180.26,4184.1,4167.31,4183.21,4172.18,4174.62,4193.33,4182.56,4176.15,4168.21,4145.64,4169.74,4169.1,0,8196,8150,0,18.1439,
49,0,4180.26,4178.33,4185.13,4166.92,4181.67,4170.38,4169.87,4192.82,4183.46,4180.13,4169.87,4146.67,4172.05,4169.74,0,8189,8160,0,18.1477,
50,0,4183.33,4179.87,4186.79,4170,4181.67,4170.9,4167.05,4192.82,4186.92,4186.28,4175.77,4152.05,4177.82,4174.23,0,8189,8160,0,18.1516,
51,0,4186.54,4183.72,4187.56,4175.26,4182.82,4173.46,4166.67,4193.85,4192.31,4193.08,4183.59,4160,4184.87,4181.54,0,8189,8164,0,18.1556,
52,0,4189.1,4187.44,4188.72,4180.51,4184.23,4176.41,4167.44,4195.9,4197.56,4198.85,4190.77,4167.18,4190.9,4189.1,0,8189,8164,0,18.1595,
53,0,4191.54,4189.74,4191.79,4183.85,4184.87,4177.95,4168.08,4198.21,4201.15,4202.44,4195.77,4171.28,4195.26,4195.64,0,8185,8164,0,18.1635,
54,0,4193.72,4190.51,4195.38,4185.13,4184.87,4177.56,4168.21,4199.62,4201.79,4203.72,4198.85,4171.67,4198.08,4200.38,0,8185,8164,0,18.1674,
55,0,4195.51,4190.26,4196.15,4185.13,4184.62,4176.28,4168.46,4199.36,4200.13,4203.08,4200.38,4169.49,4199.62,4202.82,0,8191,8164,0,18.1713,
56,0,4196.28,4189.49,4193.21,4184.36,4184.1,4176.03,4169.87,4197.95,4197.69,4201.92,4200.9,4167.18,4200.26,4202.44,0,8191,8164,0,18.1753,
57,0,4196.28,4188.46,4190.38,4183.08,4183.85,4178.21,4173.33,4197.18,4196.79,4201.28,4200.64,4166.67,4200.26,4200.13,0,8188,8166,0,18.1792,
58,0,4196.03,4187.56,4191.41,4181.54,4184.23,4181.92,4178.33,4198.33,4198.33,4201.79,4199.87,4168.21,4200.64,4197.18,0,8188,8166,0,18.1832,
59,0,4195.77,4187.18,4195.26,4180.26,4185.13,4184.87,4182.95,4200.13,4200.77,4202.82,4198.59,4170.13,4201.54,4194.87,0,8178,8164,0,18.1871,
60,0,4196.03,4187.18,4197.44,4180,4186.28,4185.38,4186.03,4200.51,4201.92,4202.82,4196.92,4170.9,4201.79,4193.72,0,8178,8164,0,18.191,
61,0,4197.44,4187.44,4195.26,4180.77,4187.44,4183.85,4187.05,4198.21,4200.13,4200.64,4194.49,4169.74,4199.74,4193.08,0,8177,8168,0,18.195,
62,0,4199.1,4187.69,4191.15,4182.05,4188.21,4182.31,4187.31,4194.36,4195.9,4196.03,4191.54,4167.44,4195,4191.92,0,8177,8168,0,18.1989,
63,0,4199.1,4187.56,4189.87,4182.69,4187.05,4182.56,4187.05,4191.15,4191.15,4190.26,4187.82,4164.87,4189.1,4190.13,0,8183,8155,0,18.2029,
64,0,4196.15,4187.05,4191.79,4181.92,4183.59,4184.1,4185.64,4190.26,4188.21,4185.51,4183.97,4162.05,4184.36,4187.56,0,8183,8155,0,18.2068,
65,0,4190.9,4186.03,4193.21,4179.23,4178.97,4185,4182.82,4192.44,4187.95,4183.85,4180.77,4158.97,4182.31,4184.87,0,8179,8162,0,18.2107,
66,0,4186.15,4184.87,4190.77,4175.38,4175.9,4183.08,4178.59,4196.67,4189.74,4185.38,4179.49,4156.03,4183.46,4182.95,0,8179,8162,0,18.2147,
67,0,4184.36,4184.36,4185.9,4172.31,4176.28,4178.21,4173.97,4200.51,4191.41,4188.08,4180,4154.23,4185.9,4181.67,0,8179,8160,0,18.2186,
68,0,4185.13,4184.49,4182.05,4170.9,4178.59,4172.44,4170,4201.41,4190.9,4188.59,4180.64,4153.33,4187.05,4179.87,0,8179,8160,0,18.2226,
69,0,4185.9,4184.49,4180.77,4170.9,4179.74,4168.72,4167.44,4198.46,4187.82,4184.74,4179.87,4152.31,4185.13,4177.05,0,8177,8158,0,18.2265,
70,0,4184.49,4183.59,4180.38,4170.64,4177.95,4168.46,4167.18,4193.21,4183.85,4178.33,4177.05,4150.26,4180.64,4173.59,0,8177,8158,0,18.2304,
71,0,4181.41,4181.92,4179.36,4169.87,4174.23,4170.77,4169.36,4188.59,4181.92,4173.33,4172.95,4148.08,4176.15,4171.15,0,8179,8150,0,18.2344,
72,0,4179.36,4180.9,4179.23,4169.74,4172.05,4173.21,4173.21,4186.67,4182.82,4172.95,4169.49,4147.44,4174.36,4171.03,0,8179,8150,0,18.2383,
73,0,4180.38,4181.92,4181.92,4171.54,4173.85,4173.97,4176.92,4187.18,4184.87,4176.79,4168.46,4149.62,4176.28,4172.95,0,8177,8151,0,18.2423,
74,0,4183.59,4184.62,4186.79,4174.87,4179.1,4172.18,4178.46,4187.56,4185.13,4181.03,4170.26,4153.46,4180.64,4175.51,0,8177,8151,0,18.2462,
75,0,4186.54,4187.05,4189.74,4177.69,4184.49,4169.36,4176.92,4186.15,4182.44,4182.18,4173.59,4156.41,4184.87,4176.67,0,8175,8150,0,18.2501,
76,0,4187.05,4187.82,4188.46,4178.08,4186.79,4168.46,4173.46,4183.59,4178.72,4179.74,4176.41,4156.41,4186.54,4176.28,0,8175,8150,0,18.2541,
77,0,4185.38,4186.79,4185.51,4176.15,4185.26,4171.41,4170.26,4182.44,4176.67,4176.15,4178.33,4154.87,4185.26,4175.9,0,8177,8153,0,18.258,
78,0,4183.97,4186.54,4185.64,4173.97,4182.05,4177.18,4170,4185.26,4178.08,4174.87,4180.26,4155.13,4183.08,4177.44,0,8177,8153,0,18.262,
79,0,4184.87,4188.33,4189.87,4174.36,4180.13,4182.44,4173.33,4191.92,4182.44,4177.82,4183.33,4159.36,4182.82,4181.28,0,8177,8152,0,18.2659,
80,0,4187.82,4191.92,4193.97,4177.56,4181.28,4184.74,4179.23,4199.23,4187.56,4183.97,4187.18,4166.15,4185.9,4185.9,0,8177,8152,0,18.2698,
81,0,4190.26,4194.62,4193.08,4181.15,4184.74,4183.59,4185.26,4202.95,4190.13,4189.49,4189.36,4171.03,4190.26,4188.72,0,8172,8161,0,18.2738,
82,0,4189.62,4194.23,4187.82,4181.54,4187.31,4180.9,4188.33,4200.38,4188.46,4190.51,4186.92,4170.13,4191.28,4187.31,0,8172,8161,0,18.2777,
83,0,4185.64,4191.03,4183.08,4177.44,4186.92,4179.1,4187.95,4193.33,4183.97,4186.54,4179.87,4163.59,4186.03,4181.92,0,8178,8159,0,18.2817,
84,0,4180.64,4187.31,4182.69,4171.67,4184.74,4180.13,4186.15,4186.28,4180.38,4180.77,4171.79,4155.38,4176.03,4174.62,0,8178,8159,0,18.2856,
85,0,4177.95,4186.15,4185.51,4169.23,4183.46,4183.85,4185.77,4183.85,4180.64,4178.21,4167.56,4150.26,4167.31,4169.74,0,8182,8164,0,18.2895,
86,0,4179.23,4188.72,4187.95,4172.69,4184.74,4188.46,4187.56,4186.92,4184.62,4180.51,4169.74,4149.87,4166.15,4170.13,0,8182,8164,0,18.2935,
87,0,4183.72,4192.82,4188.21,4179.87,4187.18,4190.77,4189.49,4192.31,4189.1,4185.38,4176.41,4153.08,4174.1,4175.64,0,8183,8160,0,18.2974,
88,0,4188.33,4195.13,4187.82,4185,4187.69,4189.23,4188.97,4195.51,4190.77,4189.23,4183.72,4157.56,4186.41,4182.44,0,8183,8160,0,18.3014,
89,0,4190.51,4193.72,4187.95,4184.23,4185,4184.23,4185.13,4194.36,4189.1,4189.87,4188.33,4161.03,4196.28,4187.31,0,8182,8163,0,18.3053,
90,0,4190.13,4189.87,4187.69,4178.33,4180.77,4178.46,4179.74,4190.51,4186.15,4188.21,4189.36,4163.33,4199.23,4188.97,0,8182,8163,0,18.3092,
91,0,4188.59,4186.92,4185.9,4172.18,4178.21,4174.74,4175,4186.79,4184.1,4186.41,4188.08,4164.62,4195.64,4188.46,0,8180,8164,0,18.3132,
92,0,4187.69,4186.41,4184.49,4170.26,4178.46,4173.97,4171.92,4185.38,4183.08,4185.38,4186.03,4165.13,4189.36,4187.44,0,8180,8164,0,18.3171,
93,0,4187.82,4187.69,4186.03,4172.44,4180.51,4174.74,4170.64,4185.51,4181.28,4184.1,4183.33,4164.36,4184.49,4186.15,0,8177,8171,0,18.3211,
94,0,4188.08,4188.33,4190.64,4175.77,4181.79,4174.62,4170.13,4185.51,4177.82,4180.9,4179.62,4162.18,4182.95,4185,0,8177,8171,0,18.325,
95,0,4187.69,4187.44,4194.23,4177.31,4181.41,4172.18,4169.74,4184.49,4173.59,4175.51,4175.13,4158.59,4183.33,4183.33,0,8187,8156,0,18.3289,
96,0,4186.54,4185.64,4193.08,4176.79,4179.74,4169.1,4168.85,4183.33,4170.38,4169.62,4171.03,4154.87,4182.69,4180.64,0,8187,8156,0,18.3329,
97,0,4185.38,4184.74,4188.33,4175.77,4178.21,4167.95,4167.69,4183.08,4168.97,4166.41,4168.85,4152.31,4179.36,4177.18,0,8188,8163,0,18.3368,
98,0,4184.74,4185.13,4184.49,4175.26,4178.08,4170.51,4166.92,4183.46,4169.1,4167.82,4168.85,4151.92,4174.36,4173.97,0,8188,8163,0,18.3408,
99,0,4184.87,4185.77,4184.49,4175.13,4179.36,4175.51,4167.56,4183.97,4169.49,4172.56,4169.74,4152.44,4170.51,4172.31,0,8186,8177,0,18.3447,
100,0,4185,4185.64,4185.77,4174.62,4181.28,4180.77,4170.26,4184.1,4170,4177.69,4170.26,4152.05,4170.13,4172.69,0,8186,8177,0,18.3486,
101,0,4185,4184.74,4184.49,4173.46,4182.95,4184.49,4175,4184.23,4172.05,4181.15,4170.13,4150,4173.46,4174.74,0,8182,8167,0,18.3526,
102,0,4184.87,4184.1,4180.9,4172.82,4183.97,4186.54,4180.64,4186.15,4177.82,4183.33,4170.51,4147.95,4178.97,4177.82,0,8182,8167,0,18.3565,
103,0,4185.13,4184.49,4179.74,4174.23,4184.36,4188.21,4185.51,4190.64,4187.18,4186.03,4173.21,4148.97,4184.1,4181.28,0,8183,8157,0,18.3605,
104,0,4186.03,4185.64,4183.46,4177.44,4185,4190.26,4188.59,4196.41,4196.41,4190.13,4178.59,4153.85,4187.18,4184.49,0,8183,8157,0,18.3644,
105,0,4186.92,4186.41,4188.85,4180.26,4186.28,4192.95,4189.87,4200.9,4201.03,4194.74,4184.23,4160.38,4188.33,4187.05,0,8185,8161,0,18.3683,
106,0,4187.05,4186.41,4190.64,4179.87,4187.82,4195.26,4189.87,4201.92,4199.62,4197.31,4187.56,4164.74,4188.46,4187.95,0,8185,8161,0,18.3723,
107,0,4185.9,4185.64,4186.92,4175.77,4187.95,4195,4189.23,4199.87,4194.23,4195.9,4186.92,4165,4187.95,4186.92,0,8186,8166,0,18.3762,
108,0,4184.1,4184.49,4181.79,4170.38,4185.13,4190.77,4187.69,4196.28,4189.1,4191.41,4183.46,4161.54,4186.54,4184.62,0,8186,8166,0,18.3802,
109,0,4182.56,4183.08,4179.62,4167.44,4179.36,4183.97,4184.36,4193.08,4186.03,4186.41,4179.36,4156.79,4183.85,4181.67,0,8184,8161,0,18.3841,
110,0,4182.18,4181.92,4180.51,4167.82,4173.21,4177.44,4179.62,4190.64,4184.23,4183.33,4175.9,4153.08,4179.87,4178.85,0,8184,8161,0,18.388,
111,0,4182.05,4180.9,4181.79,4169.49,4169.36,4173.97,4175,4188.33,4181.92,4182.44,4173.46,4151.41,4175.51,4175.64,0,8179,8169,0,18.392,
112,0,4180.9,4180.26,4181.54,4169.74,4169.36,4174.1,4172.82,4185.9,4178.72,4182.56,4171.92,4151.54,4172.69,4172.31,0,8179,8169,0,18.3959,
113,0,4178.85,4179.87,4181.28,4168.21,4173.21,4176.54,4174.1,4184.74,4175.9,4182.44,4171.67,4152.95,4172.56,4170.64,0,8185,8156,0,18.3999,
114,0,4178.08,4180.26,4182.82,4167.56,4179.1,4179.23,4177.69,4186.41,4175.26,4181.92,4173.46,4155,4175.64,4172.69,0,8185,8156,0,18.4038,
115,0,4180.26,4182.18,4185.38,4170.38,4184.74,4181.54,4181.15,4190.77,4177.69,4181.79,4177.56,4157.69,4180.9,4178.33,0,8179,8156,0,18.4077,
116,0,4185.13,4185.77,4186.67,4176.54,4187.82,4183.85,4182.56,4195.64,4182.18,4182.82,4182.69,4160.77,4185.9,4185.26,0,8179,8156,0,18.4117,
41,0,4158.72,4212.95,4125.51,4169.62,4168.59,4167.31,4166.28,4168.08,4154.23,4153.85,4152.18,4140.64,4137.69,4150.64,0,8198,8155,0,19.1248,
42,0,4161.15,4215.38,4127.18,4170.64,4170.77,4169.74,4168.59,4168.97,4160,4155.26,4153.08,4142.18,4139.74,4151.28,0,8198,8155,0,19.1288,
43,0,4162.31,4218.59,4126.03,4172.18,4172.69,4170.77,4171.15,4169.49,4165.38,4156.15,4152.44,4142.44,4142.82,4151.03,0,8197,8158,0,19.1327,
44,0,4161.41,4219.62,4122.05,4173.21,4172.95,4170.26,4172.31,4169.23,4165.77,4155.64,4149.36,4140,4143.72,4148.59,0,8197,8158,0,19.1367,
45,0,4158.72,4216.28,4118.46,4171.92,4171.92,4169.36,4171.15,4167.95,4160.26,4153.08,4144.36,4135.13,4141.03,4143.72,0,8197,8148,0,19.1406,
46,0,4155.64,4209.87,4117.44,4167.95,4170.51,4168.85,4168.97,4166.41,4153.08,4149.36,4139.23,4129.74,4135.64,4138.08,0,8197,8148,0,19.1445,
47,0,4153.33,4203.85,4117.56,4162.56,4169.49,4169.62,4167.82,4165.51,4149.62,4146.92,4136.92,4126.28,4131.15,4134.49,0,8187,8158,0,19.1485,
48,0,4152.18,4201.67,4116.41,4158.72,4169.62,4171.28,4168.85,4166.28,4152.95,4147.95,4139.49,4126.15,4130.77,4135.38,0,8187,8158,0,19.1524,
49,0,4151.92,4204.36,4114.74,4158.33,4170.51,4173.59,4171.79,4168.72,4160.77,4152.44,4146.41,4129.49,4135,4140.64,0,8186,8162,0,19.1564,
50,0,4152.31,4209.87,4115.26,4161.28,4172.05,4175.38,4174.74,4171.54,4168.46,4158.72,4154.49,4135.13,4141.92,4147.82,0,8186,8162,0,19.1603,
51,0,4153.59,4215.13,4119.23,4166.03,4175,4176.41,4175.77,4172.95,4172.69,4164.62,4160.51,4141.15,4148.85,4153.72,0,8182,8167,0,19.1642,
52,0,4156.03,4218.33,4124.49,4170.26,4179.1,4176.28,4174.36,4173.21,4173.72,4168.72,4163.97,4146.03,4153.72,4156.54,0,8182,8167,0,19.1682,
53,0,4159.49,4218.97,4127.44,4172.69,4183.46,4175.26,4172.05,4172.82,4173.97,4170.9,4166.15,4148.59,4156.03,4156.15,0,8184,8172,0,19.1721,
54,0,4163.33,4218.46,4128.08,4172.82,4185.38,4173.59,4170.38,4173.21,4175.38,4171.15,4168.08,4149.1,4156.67,4154.62,0,8184,8172,0,19.1761,
55,0,4166.54,4217.95,4129.36,4171.67,4183.72,4171.54,4169.87,4174.49,4176.54,4170.38,4169.36,4148.72,4156.41,4153.85,0,8184,8167,0,19.18,
56,0,4168.21,4218.08,4132.56,4170.64,4179.1,4169.62,4169.74,4176.28,4175.9,4169.23,4168.97,4148.08,4156.15,4154.87,0,8184,8167,0,19.1839,
57,0,4168.46,4218.59,4135.77,4170.77,4174.36,4168.59,4169.23,4178.33,4173.21,4168.59,4166.92,4148.08,4156.03,4157.82,0,8178,8141,0,19.1879,
58,0,4168.33,4218.97,4136.03,4171.79,4172.18,4169.23,4169.1,4180.38,4170.9,4168.85,4164.36,4148.97,4155.77,4161.41,0,8178,8141,0,19.1918,
59,0,4169.1,4218.97,4133.33,4172.95,4172.82,4171.67,4170.51,4182.56,4171.03,4169.74,4162.95,4150.77,4155,4164.74,0,8170,8157,0,19.1958,
60,0,4171.03,4218.72,4130.9,4173.46,4174.62,4173.97,4174.1,4184.74,4173.97,4170.77,4163.33,4153.59,4154.49,4167.05,0,8170,8157,0,19.1997,
61,0,4173.08,4218.08,4131.41,4173.72,4175.51,4174.74,4178.85,4186.54,4178.08,4171.15,4165.26,4156.67,4154.62,4168.85,0,8178,8164,0,19.2035,
62,0,4174.23,4217.31,4133.97,4173.85,4175.13,4173.85,4182.95,4187.18,4180.77,4170.51,4167.82,4158.08,4156.03,4170.13,0,8178,8164,0,19.2067,
63,0,4174.1,4216.79,4135.64,4173.85,4174.62,4172.95,4185,4186.79,4180.13,4169.36,4169.36,4156.79,4157.82,4170.64,0,8189,8152,0,19.2099,
64,0,4172.82,4216.54,4135.13,4172.95,4175,4173.85,4185.38,4185.38,4176.79,4168.59,4169.36,4153.21,4158.46,4170.13,0,8189,8152,0,19.2131,
65,0,4170.9,4215.9,4134.23,4171.15,4175.77,4176.41,4185.26,4183.72,4172.82,4168.72,4168.33,4149.87,4156.92,4168.97,0,8177,8148,0,19.2163,
66,0,4169.23,4213.97,4133.59,4168.85,4175.51,4178.97,4185.26,4181.92,4170.51,4169.23,4167.05,4148.85,4154.62,4168.08,0,8177,8148,0,19.2195,
67,0,4168.33,4211.15,4131.54,4167.31,4174.23,4180.13,4185.51,4180.77,4170.38,4169.36,4166.67,4150.51,4153.72,4168.08,0,8179,8148,0,19.2226,
68,0,4168.08,4208.72,4126.79,4167.69,4173.59,4179.62,4186.15,4180.9,4171.79,4168.85,4167.31,4152.82,4155.77,4168.46,0,8179,8148,0,19.2258,
69,0,4167.56,4208.08,4121.41,4169.49,4174.74,4178.21,4186.79,4182.56,4173.08,4167.44,4167.44,4154.23,4159.1,4168.33,0,8179,8146,0,19.229,
70,0,4166.15,4209.1,4119.49,4171.28,4177.56,4177.31,4186.92,4184.23,4172.95,4165.13,4165.38,4154.23,4160.51,4166.54,0,8179,8146,0,19.2322,
71,0,4163.72,4210,4122.82,4171.28,4179.87,4177.56,4186.15,4184.36,4171.03,4161.92,4161.03,4153.33,4157.44,4162.82,0,8180,8152,0,19.2354,
72,0,4160.51,4209.1,4127.05,4168.85,4179.74,4177.56,4184.62,4182.69,4167.95,4158.33,4156.15,4151.79,4150.64,4157.44,0,8180,8152,0,19.2385,
73,0,4157.18,4206.15,4126.92,4165.13,4177.56,4175.77,4182.31,4180,4164.87,4154.87,4152.82,4149.49,4143.59,4152.31,0,8180,8159,0,19.2417,
74,0,4154.74,4202.82,4121.92,4162.18,4175.26,4172.18,4179.74,4178.21,4163.08,4152.56,4152.05,4146.67,4140.38,4149.36,0,8180,8159,0,19.2449,
75,0,4154.87,4201.79,4117.95,4161.79,4175.26,4168.97,4177.69,4178.46,4163.33,4153.21,4153.59,4144.62,4142.69,4149.87,0,8176,8155,0,19.2481,
76,0,4158.59,4204.36,4119.87,4164.49,4178.21,4169.36,4177.69,4180.9,4166.03,4157.56,4156.54,4144.62,4149.62,4153.72,0,8176,8155,0,19.2513,
77,0,4164.49,4209.1,4126.67,4169.49,4182.05,4173.85,4181.03,4184.62,4170.38,4164.49,4159.62,4147.18,4157.82,4158.72,0,8182,8159,0,19.2544,
78,0,4169.23,4212.31,4132.44,4174.1,4183.33,4179.74,4186.03,4188.21,4174.87,4170.9,4161.41,4150.38,4163.08,4162.18,0,8182,8159,0,19.2576,
79,0,4168.97,4210.51,4133.59,4175.64,4180.38,4182.44,4189.1,4189.87,4177.05,4173.33,4160.9,4151.67,4162.69,4161.54,0,8182,8157,0,19.2608,
80,0,4162.95,4203.08,4131.79,4172.69,4174.36,4179.36,4187.82,4189.23,4175.9,4170.13,4158.33,4149.87,4157.18,4156.92,0,8182,8157,0,19.264,
81,0,4154.23,4193.08,4130.38,4166.15,4168.72,4172.56,4182.95,4186.54,4172.56,4162.69,4154.87,4146.15,4148.97,4150.9,0,8188,8165,0,19.2672,
82,0,4147.31,4184.87,4130.13,4158.85,4165.77,4166.41,4178.21,4183.33,4169.1,4155,4151.54,4142.95,4141.79,4146.79,0,8188,8165,0,19.2703,
83,0,4144.62,4181.28,4129.1,4153.72,4166.15,4164.62,4176.92,4180.77,4167.56,4151.03,4149.62,4141.92,4137.69,4146.41,0,8182,8162,0,19.2735,
84,0,4145.38,4181.54,4126.79,4152.31,4167.95,4167.44,4179.49,4179.62,4167.82,4151.54,4149.49,4143.85,4137.05,4148.97,0,8182,8162,0,19.2767,
85,0,4146.67,4183.21,4125,4153.72,4169.23,4172.18,4183.72,4179.74,4168.72,4154.49,4151.03,4148.08,4138.46,4151.54,0,8187,8163,0,19.2799,
86,0,4146.28,4183.97,4125.51,4155.51,4168.97,4175.26,4186.67,4180.77,4168.85,4156.41,4152.95,4151.79,4140.51,4151.41,0,8187,8163,0,19.2831,
87,0,4143.59,4183.21,4126.79,4155.38,4167.56,4175.26,4187.44,4182.31,4168.21,4156.03,4153.59,4152.44,4141.67,4148.33,0,8173,8160,0,19.2863,
88,0,4140.13,4181.15,4125.64,4153.21,4166.03,4172.31,4186.79,4183.72,4167.95,4154.23,4152.56,4149.1,4141.67,4143.97,0,8173,8160,0,19.2894,
89,0,4139.1,4179.87,4122.31,4151.28,4165.9,4169.1,4185.38,4184.1,4169.1,4153.33,4151.03,4144.36,4141.67,4141.67,0,8172,8167,0,19.2926,
90,0,4142.44,4181.03,4121.03,4152.44,4167.82,4167.95,4183.46,4183.33,4171.54,4155.26,4151.28,4142.44,4143.46,4143.33,0,8172,8167,0,19.2958,
91,0,4149.1,4185.51,4125.13,4157.18,4170.64,4169.36,4180.9,4182.18,4174.1,4159.74,4155,4144.87,4147.69,4148.46,0,8183,8169,0,19.299,
92,0,4155.26,4191.79,4132.82,4163.59,4172.82,4171.41,4177.82,4181.28,4175,4165.26,4161.03,4149.49,4152.95,4153.97,0,8183,8169,0,19.3022,
93,0,4157.44,4197.44,4138.33,4168.72,4173.46,4172.69,4174.74,4181.15,4174.23,4169.74,4166.54,4152.82,4157.44,4157.18,0,8178,8165,0,19.3053,
94,0,4156.28,4200.64,4138.59,4170.77,4173.46,4173.33,4172.44,4181.79,4173.72,4172.18,4169.87,4153.33,4160.13,4157.95,0,8178,8165,0,19.3085,
95,0,4155.9,4201.41,4136.79,4170.77,4173.85,4174.1,4171.54,4182.82,4175.38,4172.82,4170.9,4152.95,4161.41,4158.46,0,8185,8165,0,19.3117,
96,0,4159.23,4201.28,4137.82,4171.41,4175.38,4175.13,4172.31,4183.97,4179.23,4173.08,4170.38,4154.23,4161.67,4161.03,0,8185,8165,0,19.3149,
97,0,4165.64,4201.67,4142.18,4174.1,4177.44,4175.77,4173.33,4184.87,4183.08,4173.59,4169.36,4157.56,4160.9,4165.51,0,8180,8168,0,19.3181,
98,0,4171.41,4203.08,4145.51,4177.69,4178.33,4175.13,4172.95,4185.13,4183.97,4173.97,4169.1,4161.79,4159.62,4169.49,0,8180,8168,0,19.3212,
99,0,4173.72,4204.74,4144.62,4179.49,4177.44,4173.46,4170.64,4184.36,4181.03,4173.59,4170.38,4165.26,4158.72,4170.77,0,8188,8163,0,19.3244,
100,0,4172.69,4206.15,4141.03,4178.08,4175,4171.15,4168.08,4183.08,4176.15,4172.18,4173.08,4167.69,4160,4169.74,0,8188,8163,0,19.3276,
101,0,4170.77,4207.05,4139.36,4174.36,4172.44,4169.36,4167.05,4182.31,4173.59,4170.38,4176.28,4169.1,4163.33,4168.85,0,8188,8158,0,19.3308,
102,0,4170.13,4207.31,4141.15,4171.03,4170.9,4168.97,4168.46,4183.08,4176.03,4170,4179.1,4169.87,4167.31,4169.87,0,8188,8158,0,19.334,
103,0,4170.9,4206.67,4143.59,4170.38,4170.9,4170.13,4171.67,4185.13,4182.31,4171.79,4180.64,4169.87,4169.36,4171.41,0,8184,8169,0,19.3371,
104,0,4171.15,4204.1,4142.56,4171.67,4171.92,4172.44,4175.64,4187.18,4187.95,4174.62,4179.87,4168.85,4167.69,4171.03,0,8184,8169,0,19.3403,
105,0,4168.85,4199.23,4138.33,4172.44,4172.69,4174.23,4179.49,4187.95,4188.33,4175.51,4175.9,4166.15,4162.31,4167.18,0,8179,8161,0,19.3435,
106,0,4163.72,4192.82,4134.49,4170.64,4172.31,4174.36,4182.82,4186.54,4182.69,4172.69,4169.36,4161.67,4155.26,4160.9,0,8179,8161,0,19.3467,
107,0,4157.31,4186.92,4133.59,4166.67,4170.9,4173.08,4185.26,4183.21,4174.49,4166.79,4162.44,4156.54,4150,4154.87,0,8184,8159,0,19.3499,
108,0,4152.18,4183.21,4134.62,4162.95,4169.62,4171.41,4186.54,4179.1,4168.08,4161.15,4157.31,4152.56,4148.08,4151.41,0,8184,8159,0,19.3531,
109,0,4150.64,4181.79,4135,4161.41,4168.72,4170.51,4186.92,4175.38,4165.64,4158.33,4155.13,4150.77,4149.1,4151.03,0,8186,8171,0,19.3562,
110,0,4152.18,4181.41,4134.74,4162.56,4168.33,4171.15,4186.92,4172.95,4166.67,4159.36,4154.62,4150.38,4150.9,4152.44,0,8186,8171,0,19.3594,
111,0,4155,4180.51,4135.26,4165.13,4168.21,4172.69,4187.18,4171.67,4168.85,4162.95,4154.62,4150.13,4152.05,4153.85,0,8183,8172,0,19.3626,
112,0,4156.92,4178.97,4136.79,4167.56,4168.97,4174.1,4187.69,4171.28,4170.77,4166.79,4155,4149.36,4152.95,4153.85,0,8183,8172,0,19.3658,
113,0,4156.92,4178.21,4137.44,4169.23,4171.15,4174.74,4187.82,4170.77,4172.05,4169.23,4156.79,4148.85,4154.49,4153.21,0,8185,8160,0,19.369,
114,0,4155.51,4179.23,4136.03,4169.74,4174.36,4174.62,4187.05,4169.87,4172.44,4170,4160.26,4149.36,4157.05,4152.82,0,8185,8160,0,19.3721,
115,0,4153.59,4181.41,4133.97,4169.49,4176.54,4173.85,4185.77,4169.36,4171.67,4169.62,4164.49,4150.77,4159.23,4153.59,0,8179,8163,0,19.3753,
116,0,4152.56,4183.46,4133.85,4168.85,4176.28,4173.33,4184.1,4170.13,4170.13,4168.72,4167.31,4152.44,4159.62,4154.49,0,8179,8163,0,19.3785,
117,0,4153.33,4184.23,4135.9,4168.33,4173.97,4174.36,4182.56,4173.08,4169.1,4168.08,4167.95,4153.59,4158.46,4154.74,0,8177,8160,0,19.3817,
118,0,4155.64,4183.72,4137.31,4168.72,4171.79,4177.56,4181.92,4177.56,4170,4168.08,4166.92,4153.97,4157.44,4154.36,0,8177,8160,0,19.3849,
119,0,4158.08,4182.82,4135.64,4169.74,4171.92,4182.05,4182.69,4181.92,4173.21,4168.85,4166.28,4154.49,4157.69,4154.23,0,8176,8162,0,19.388,
120,0,4158.97,4182.31,4133.08,4171.03,4175.26,4185.64,4184.36,4184.62,4177.69,4170.13,4166.67,4155.13,4158.72,4154.74,0,8176,8162,0,19.3912,
121,0,4158.97,4182.56,4133.59,4172.18,4180.64,4186.67,4185.77,4185.51,4182.05,4171.41,4167.95,4155.77,4159.23,4155.64,0,8175,8169,0,19.3944,
122,0,4159.74,4183.46,4137.56,4173.21,4185.13,4185.38,4185.51,4185.77,4185.26,4172.31,4169.23,4155.77,4158.72,4156.79,0,8175,8169,0,19.3976,
123,0,4161.92,4184.49,4141.03,4174.1,4186.15,4183.46,4183.08,4186.41,4186.92,4172.82,4169.23,4155.13,4157.69,4157.95,0,8184,8168,0,19.4008,
124,0,4164.49,4185.13,4140.38,4174.49,4183.21,4182.18,4178.97,4186.54,4186.54,4172.82,4167.18,4153.97,4157.05,4158.59,0,8184,8168,0,19.404,
125,0,4165,4184.87,4136.28,4174.23,4178.46,4181.92,4174.49,4184.62,4183.97,4172.31,4162.95,4152.95,4156.41,4157.95,0,8190,8159,0,19.4071,
126,0,4163.21,4183.59,4133.46,4173.21,4174.36,4181.79,4171.54,4179.74,4179.36,4171.15,4157.82,4152.69,4155.26,4155.77,0,8190,8159,0,19.4103,
127,0,4160.64,4182.05,4134.74,4172.05,4173.33,4181.28,4171.28,4173.72,4174.23,4169.49,4153.97,4152.95,4153.33,4153.46,0,8184,8161,0,19.4135,
128,0,4159.62,4181.15,4138.08,4171.67,4176.15,4180.9,4173.97,4169.1,4170.38,4168.46,4153.21,4153.33,4151.92,4153.21,2322,8184,8161,0,19.4167,
51,0,4176.79,4146.15,4177.31,4172.18,4176.67,4187.18,4191.41,4186.54,4197.82,4197.18,4190.38,4170.26,4186.54,4183.46,0,8276,8034,0,19.9861,
52,0,4179.23,4147.69,4176.79,4173.59,4176.67,4185.9,4191.79,4188.85,4201.15,4200.9,4196.28,4171.79,4197.31,4186.67,0,8276,8034,0,19.9893,
53,0,4184.49,4151.54,4176.15,4174.36,4175.38,4181.67,4189.74,4186.92,4200.77,4201.41,4201.03,4173.08,4206.03,4192.18,0,8288,8032,0,19.9924,
54,0,4188.46,4153.97,4175.13,4173.59,4173.33,4176.67,4186.54,4180.77,4195.77,4197.82,4202.95,4173.33,4209.1,4197.18,0,8288,8032,0,19.9956,
55,0,4188.46,4152.31,4173.08,4171.92,4171.67,4172.69,4183.72,4173.59,4188.33,4191.54,4202.05,4171.92,4207.69,4199.49,0,8292,8025,0,19.9988,
56,0,4184.62,4146.79,4171.41,4170,4170.38,4170.26,4182.82,4169.49,4182.18,4185.64,4200,4169.49,4205.38,4199.1,0,8292,8025,0,20.002,
57,0,4180.26,4141.03,4173.08,4168.21,4169.49,4168.97,4183.85,4170.64,4179.74,4182.44,4198.33,4167.69,4205,4197.44,0,8281,8036,0,20.0052,
58,0,4178.97,4139.1,4178.08,4167.31,4169.1,4168.85,4185.38,4175.77,4181.67,4182.44,4198.21,4167.82,4206.92,4196.41,0,8281,8036,0,20.0083,
59,0,4182.05,4142.82,4182.69,4168.46,4169.1,4170.26,4186.28,4181.03,4185.9,4184.87,4199.23,4170,4209.23,4197.44,0,8282,8033,0,20.0115,
60,0,4187.56,4150,4182.95,4172.44,4169.74,4173.85,4186.54,4183.72,4190.26,4188.08,4200.26,4172.95,4210.51,4199.74,0,8282,8033,0,20.0147,
61,0,4192.18,4156.28,4180,4177.82,4170.9,4178.59,4186.54,4183.46,4192.18,4190.26,4200.9,4175.26,4209.74,4201.41,0,8274,8045,0,20.0179,
62,0,4193.33,4158.33,4178.85,4181.92,4172.18,4181.92,4186.54,4182.31,4191.15,4190.26,4200.77,4176.03,4206.92,4200.51,0,8274,8045,0,20.0211,
63,0,4190.9,4156.03,4181.67,4182.18,4172.56,4181.28,4186.28,4182.05,4188.59,4187.82,4200,4174.87,4203.46,4197.44,0,8269,8063,0,20.0243,
64,0,4186.67,4152.05,4185.51,4178.97,4171.41,4177.18,4185.64,4182.69,4186.79,4184.87,4198.46,4171.92,4201.15,4194.23,0,8269,8063,0,20.0274,
65,0,4183.97,4150.13,4185.38,4175.13,4168.97,4172.69,4184.23,4183.46,4187.44,4183.72,4196.67,4168.46,4201.15,4193.08,0,8266,8078,0,20.0306,
66,0,4185.13,4151.28,4181.54,4174.49,4167.05,4171.15,4182.44,4183.59,4190.64,4185.13,4195.64,4166.54,4203.46,4194.62,0,8266,8078,0,20.0338,
67,0,4190,4154.36,4178.97,4178.21,4167.44,4173.21,4181.03,4183.46,4195.13,4188.72,4197.18,4167.69,4207.56,4197.69,0,8263,8074,0,20.037,
68,0,4196.15,4156.92,4181.03,4183.59,4170.77,4177.56,4181.03,4183.85,4199.36,4193.33,4201.41,4171.67,4212.44,4201.15,0,8263,8074,0,20.0402,
69,0,4200.51,4157.82,4184.87,4187.18,4175.9,4181.92,4182.82,4185.9,4201.92,4197.82,4207.56,4176.92,4217.18,4203.46,0,8246,8092,0,20.0433,
70,0,4201.67,4157.82,4186.03,4187.56,4180.77,4185.13,4186.92,4189.62,4202.95,4200.9,4213.72,4181.67,4220.38,4205.13,0,8246,8092,0,20.0465,
71,0,4200.77,4158.46,4183.85,4186.41,4183.97,4187.82,4193.08,4193.97,4202.69,4201.92,4217.95,4185.13,4221.28,4207.05,0,8239,8098,0,20.0496,
72,0,4199.87,4160.51,4182.82,4187.18,4185.64,4191.54,4199.87,4197.05,4201.67,4201.03,4219.23,4187.05,4220.38,4209.87,0,8239,8098,0,20.0529,
73,0,4200.51,4163.72,4186.28,4191.41,4186.54,4196.54,4205,4197.18,4200.9,4199.74,4217.95,4187.95,4219.23,4213.46,0,8228,8100,0,20.0562,
74,0,4202.69,4166.79,4192.31,4197.18,4187.18,4201.41,4206.79,4194.1,4201.15,4199.36,4215.51,4187.82,4218.97,4216.54,0,8228,8100,0,20.0595,
75,0,4205.26,4168.72,4195.26,4201.15,4187.69,4203.85,4205.38,4189.36,4202.69,4200.13,4213.59,4187.05,4219.1,4217.44,0,8218,8109,0,20.0628,
76,0,4206.92,4168.59,4193.46,4201.41,4188.08,4202.82,4202.56,4185.51,4204.36,4200.9,4213.08,4186.03,4219.1,4215.9,0,8218,8109,0,20.066,
77,0,4208.08,4167.56,4190.51,4198.97,4188.08,4199.62,4200.38,4184.23,4204.74,4201.28,4214.1,4185.51,4219.1,4213.85,0,8208,8138,0,20.0693,
78,0,4209.74,4167.31,4190.77,4197.18,4187.82,4197.05,4199.74,4185.26,4203.21,4201.41,4215.9,4186.41,4220.9,4213.97,0,8208,8138,0,20.0726,
79,0,4212.69,4168.72,4194.49,4198.21,4187.18,4197.31,4200.38,4187.82,4201.28,4202.18,4218.08,4188.97,4224.87,4217.05,0,8187,8156,0,20.0759,
80,0,4215.9,4171.28,4197.69,4201.41,4186.79,4199.62,4201.92,4191.67,4201.67,4204.23,4219.87,4192.69,4229.62,4221.41,0,8187,8156,0,20.0792,
81,0,4217.56,4172.95,4197.18,4203.97,4187.05,4201.92,4203.72,4196.28,4205.26,4207.18,4220.77,4195.9,4232.95,4224.36,0,8181,8177,0,20.0825,
82,0,4216.54,4172.56,4194.1,4203.72,4187.56,4202.31,4204.74,4200.64,4210.9,4210.51,4221.03,4197.31,4233.72,4224.49,0,8181,8177,0,20.0858,
83,0,4213.85,4170.51,4191.67,4201.28,4187.69,4201.15,4204.23,4202.56,4215.77,4213.46,4220.77,4196.67,4232.82,4222.56,0,8166,8204,0,20.0891,
84,0,4211.28,4168.33,4191.54,4198.59,4187.44,4199.62,4202.31,4201.28,4217.69,4215.38,4220.51,4195,4232.44,4219.87,0,8166,8204,0,20.0924,
85,0,4209.74,4167.44,4192.69,4197.56,4187.31,4199.36,4200.38,4197.82,4216.54,4215.38,4220.64,4193.72,4233.46,4217.69,0,8165,8212,0,20.0957,
86,0,4208.08,4167.69,4193.21,4198.08,4187.69,4200.13,4201.03,4195,4213.85,4213.08,4221.28,4193.33,4235.13,4216.15,0,8165,8212,0,20.099,
87,0,4205.64,4168.21,4193.08,4199.23,4187.95,4201.41,4205,4194.36,4211.54,4208.97,4221.15,4193.21,4235,4215.38,0,8142,8225,0,20.1022,
88,0,4203.46,4167.82,4193.33,4199.74,4187.31,4202.31,4210.9,4195.9,4210.77,4205.13,4219.74,4192.69,4232.44,4215.13,0,8142,8225,0,20.1055,
89,0,4203.21,4166.92,4193.33,4199.49,4186.41,4202.18,4215.26,4198.08,4211.79,4203.97,4217.69,4192.05,4229.23,4215.13,0,8144,8243,0,20.1088,
90,0,4205.64,4166.28,4192.05,4199.49,4187.05,4201.28,4216.03,4200,4214.36,4207.18,4217.31,4192.44,4228.59,4215.77,0,8144,8243,0,20.1121,
91,0,4209.49,4166.92,4189.62,4200.77,4190.64,4200.38,4213.72,4201.41,4217.82,4213.08,4219.62,4194.36,4232.18,4217.44,0,8140,8257,0,20.1154,
92,0,4212.31,4168.72,4188.21,4203.46,4196.41,4200.26,4210.64,4202.56,4220.9,4218.33,4223.46,4196.79,4238.46,4219.49,0,8140,8257,0,20.1187,
93,0,4212.82,4170.13,4189.49,4205.64,4201.15,4200.64,4208.85,4202.18,4221.79,4219.36,4226.03,4197.56,4243.46,4221.03,0,8141,8248,0,20.122,
94,0,4210.51,4169.87,4191.79,4205.13,4202.05,4200.51,4208.72,4199.36,4219.36,4215,4225.77,4195.26,4243.72,4221.28,0,8141,8248,0,20.1253,
95,0,4205.77,4166.92,4191.54,4201.15,4197.95,4198.46,4209.36,4194.62,4213.72,4207.44,4222.82,4190.38,4238.85,4219.62,0,8139,8224,0,20.1286,
96,0,4199.74,4162.18,4186.79,4194.62,4190.77,4194.36,4208.59,4189.49,4206.79,4200.9,4219.23,4185.38,4231.54,4216.67,0,8139,8224,0,20.1319,
97,0,4194.62,4157.31,4181.03,4187.95,4184.1,4189.62,4205.26,4185.77,4201.28,4198.21,4216.28,4183.46,4225.9,4213.72,0,8137,8209,0,20.1351,
98,0,4192.69,4154.49,4179.1,4183.97,4180.9,4186.54,4199.74,4183.97,4198.85,4199.1,4214.74,4185,4223.21,4211.54,0,8137,8209,0,20.1384,
99,0,4193.33,4153.85,4182.18,4183.59,4181.92,4185.51,4193.72,4182.82,4198.85,4200.64,4213.21,4187.44,4221.92,4209.87,0,8146,8190,0,20.1417,
100,0,4194.1,4154.23,4186.15,4185,4185.13,4185.26,4188.33,4180.38,4198.21,4199.49,4210,4186.28,4219.62,4207.18,0,8146,8190,0,20.145,
101,0,4192.44,4154.1,4185.9,4185.77,4187.44,4184.36,4184.23,4175.77,4194.23,4195.13,4204.49,4179.87,4215.51,4203.33,0,8144,8189,0,20.1483,
102,0,4188.85,4153.59,4181.41,4184.36,4186.67,4182.44,4181.03,4170.13,4187.18,4189.49,4198.21,4171.92,4211.54,4199.36,0,8144,8189,0,20.1516,
103,0,4186.03,4153.72,4176.79,4181.67,4183.46,4180.38,4179.49,4166.15,4180.51,4185.26,4193.97,4167.31,4209.74,4197.18,0,8146,8182,0,20.1549,
