IED_COUNTER, IED_INTERPOLATED, IED_AF3, IED_F7, IED_F3, IED_FC5, IED_T7, IED_P7, IED_O1, IED_O2, IED_P8, IED_T8, IED_FC6, IED_F4, IED_F8, IED_AF4, IED_RAW_CQ, IED_GYROX, IED_GYROY, IED_MARKER, IED_TIMESTAMP,
128,0,932.821,8383.08,5493.33,3171.79,4736.41,5992.31,5253.33,6542.56,6081.54,7363.08,1983.59,8308.72,6132.82,2003.59,15550,2917,3870,0,0.704,
126,0,2961.54,630.256,4618.46,8398.46,3730.77,2909.74,6246.15,5282.56,258.462,313.846,2713.85,7942.56,2858.46,3703.59,686,2826,2854,0,0.711816,
128,0,984.103,1104.62,8316.92,5211.79,1865.64,6047.18,2556.41,3494.87,5652.82,4634.87,2513.33,484.103,4651.79,7409.23,6855,3615,4050,0,0.727448,
107,0,1825.13,4145.13,1150.26,2855.9,7182.56,6065.64,2402.56,211.795,3884.1,884.103,5343.08,8096.41,4810.77,1608.21,16137,533,117,0,1.57159,
128,0,2300,24.1026,7925.13,5114.87,5914.87,6308.72,2663.08,6689.23,4934.87,8240,6242.05,5404.1,333.333,2632.31,300,2028,3456,0,1.73573,
128,0,7009.23,6470.26,4048.72,6407.18,4729.74,5760,2978.46,4651.28,4957.95,229.231,6895.38,8367.18,4964.1,463.59,15116,1157,930,0,1.73573,
128,0,447.179,6580,5629.23,7861.03,3336.41,1490.26,2109.23,4884.1,3480,7985.13,7811.28,4979.49,1822.56,2302.05,6483,2430,2277,0,1.73573,
128,0,4925.64,3943.08,7451.28,5457.44,5876.41,4953.33,6314.36,8225.64,3945.13,207.692,1896.41,4469.74,5898.97,6654.87,14887,2480,2277,0,1.73573,
128,0,4857.95,723.077,4510.26,7630.77,5341.54,3573.85,175.897,6836.92,8381.03,6510.77,7963.08,7731.79,8100,6920,1161,292,1261,0,1.73573,
128,0,6821.03,1144.62,7743.59,6084.1,6118.46,133.333,5037.44,3301.54,7327.18,738.974,5707.18,4995.38,7860,1156.41,10816,1438,3218,0,1.73573,
122,0,2661.54,6065.64,289.231,7021.03,2245.64,7255.9,819.487,3375.9,945.128,1235.38,5649.74,291.795,37.9487,2174.36,13034,3603,3554,0,2.69712,
128,0,8027.18,4512.82,3831.28,1034.87,87.1795,8062.56,551.795,1691.28,7986.67,4113.85,6035.38,7890.77,5457.95,7252.82,988,1197,3452,0,2.74402,
128,0,5511.79,4234.87,2605.13,5477.95,2416.92,4452.82,3596.92,7901.54,5142.05,7981.03,1892.82,2060.51,3121.03,6816.92,10045,2977,2658,0,2.74402,
128,0,4614.87,1964.62,2680.51,1026.15,2216.92,8337.44,787.179,7302.05,8378.46,4333.85,6998.97,216.41,24.1026,3446.15,6136,400,990,0,2.74402,
126,0,3578.46,6450.77,7770.77,4835.38,2907.69,872.308,1799.49,3427.18,802.051,6157.44,5.64103,989.744,7800,6429.74,15344,2208,160,0,3.73667,
128,0,2785.13,5484.62,2776.92,4272.82,756.923,5452.82,5887.69,15.3846,8314.87,2552.82,2155.9,670.769,3954.36,4420,15061,3640,578,0,3.7523,
114,0,6036.92,4068.72,4151.28,6688.21,3002.05,5190.77,3941.03,5864.62,4618.97,2492.82,6970.26,1592.31,1731.79,4195.9,13711,2088,602,0,4.65116,
118,0,3341.03,6757.44,191.282,4568.72,4966.67,6314.36,1286.15,375.897,5715.9,5381.03,6078.97,1831.79,6510.26,6682.05,16328,1792,1913,0,4.68243,
73,0,7998.46,7149.74,6564.1,1582.05,6652.31,6748.21,6403.08,5492.31,3555.9,2293.33,197.949,5822.56,2198.97,4845.64,6794,871,3613,0,5.33899,
105,0,7386.15,7861.54,1783.08,260.513,288.718,5431.28,6001.03,4530.26,3558.46,6592.31,1989.74,125.641,6792.82,4187.18,4038,2029,2667,0,5.5891,
60,0,4244.62,4707.18,4693.33,3006.15,3366.67,7474.87,4899.49,7312.31,1241.54,651.795,269.231,1681.54,3166.15,3414.87,5705,2556,797,0,6.24566,
109,0,7931.79,5337.44,5899.49,4740,3584.62,5265.13,7243.08,7125.64,8099.49,7754.36,5712.82,1358.46,2246.67,415.385,3971,3974,1141,0,6.62865,
128,0,1108.21,5370.26,1405.13,5780,1367.69,6822.56,7595.9,724.103,6142.56,8358.97,1980.51,5895.38,5223.59,64.1026,16097,42,1385,0,6.77716,
78,0,2156.92,5165.13,8318.46,1589.23,4432.82,3121.03,749.744,1573.85,8124.1,4286.67,7351.28,7761.54,7511.28,3206.67,1673,3649,41,0,7.39464,
69,0,2506.67,760.513,5733.33,4186.67,4121.03,3578.97,1292.82,1618.97,5124.1,1522.05,5810.77,3634.36,8031.28,4390.77,7111,1636,2499,0,8.33258,
45,0,3283.59,5263.59,2969.74,1367.69,3889.74,1015.9,5348.21,7406.67,330.769,1072.31,1914.87,4460,4221.54,6872.31,16018,891,1621,0,9.15327,
128,0,7831.28,999.487,7516.92,3170.26,4885.13,8073.33,5926.67,6342.05,2551.28,2583.08,4036.41,8206.15,4068.21,1089.74,10950,562,2975,0,9.80191,
95,0,4170.26,4160.51,4175.38,4231.79,4171.79,4178.46,4178.97,4166.67,4233.85,4176.92,4179.49,4212.82,4173.85,4186.15,847,2056,2003,0,10.5505,
96,0,4165.64,4156.41,4170.26,4231.79,4170.26,4175.9,4176.41,4157.44,4241.54,4175.9,4175.38,4211.79,4171.79,4182.56,850,2056,2003,0,10.5584,
97,0,4172.82,4163.08,4175.38,4227.69,4171.79,4177.95,4187.18,4172.31,4225.13,4187.69,4190.77,4203.08,4194.87,4197.95,524,2056,2004,0,10.5663,
98,0,4176.92,4165.64,4176.92,4227.18,4175.38,4177.95,4187.18,4182.05,4213.85,4194.36,4197.95,4203.08,4209.74,4209.23,837,2056,2006,0,10.5742,
99,0,4164.62,4151.28,4172.31,4237.95,4168.72,4172.82,4178.97,4173.85,4225.13,4184.1,4184.62,4211.79,4191.79,4192.82,847,2058,2006,0,10.5821,
100,0,4163.59,4149.23,4169.74,4240,4167.18,4170.26,4183.08,4179.49,4220,4188.21,4186.67,4213.33,4187.69,4185.64,850,2060,2010,0,10.5899,
101,0,4170.26,4156.92,4176.41,4234.87,4168.72,4175.38,4183.08,4182.05,4210.77,4196.41,4191.28,4206.67,4198.46,4190.26,524,2058,2010,0,10.5978,
102,0,4172.31,4155.9,4179.49,4234.36,4165.64,4176.41,4178.46,4172.31,4218.97,4190.77,4186.67,4205.64,4195.9,4193.33,837,2057,2015,0,10.6057,
103,0,4170.77,4150.26,4176.41,4235.9,4164.1,4175.9,4181.54,4171.79,4228.21,4183.08,4182.56,4208.21,4184.62,4191.28,847,2058,2015,0,10.6136,
104,0,4167.18,4149.74,4175.9,4235.9,4164.62,4179.49,4181.54,4171.28,4228.21,4176.41,4179.49,4208.72,4181.03,4185.64,850,2058,2017,0,10.6215,
105,0,4169.74,4157.44,4174.87,4232.31,4170.77,4180,4173.85,4166.15,4223.08,4180,4182.56,4206.67,4189.23,4188.21,524,2060,2021,0,10.6293,
106,0,4174.87,4160.51,4180,4230.26,4172.31,4177.44,4167.69,4163.59,4226.15,4182.05,4187.69,4202.05,4191.79,4193.85,837,2060,2022,0,10.6372,
107,0,4181.03,4161.03,4185.64,4226.67,4173.85,4175.38,4172.31,4165.64,4227.18,4180.51,4188.21,4203.08,4192.31,4196.92,847,2061,2025,0,10.6451,
108,0,4184.62,4161.54,4183.08,4225.64,4176.92,4176.41,4178.46,4167.69,4225.64,4181.03,4182.05,4204.62,4191.28,4197.44,850,2060,2027,0,10.653,
109,0,4179.49,4156.41,4183.59,4232.82,4170.77,4170.77,4170.77,4162.56,4234.87,4170.26,4171.79,4203.08,4182.05,4191.79,524,2060,2027,0,10.6609,
110,0,4176.41,4153.85,4184.62,4234.36,4164.1,4166.15,4163.59,4160.51,4240.51,4161.54,4173.33,4207.18,4177.44,4188.21,837,2059,2029,0,10.6687,
111,0,4180,4155.38,4183.59,4230.77,4162.56,4170.26,4167.18,4166.67,4235.9,4163.59,4178.46,4206.67,4178.46,4189.23,847,2059,2031,0,10.6766,
112,0,4186.15,4160,4179.49,4227.18,4164.62,4168.72,4169.23,4169.74,4229.23,4170.26,4182.56,4198.97,4184.1,4193.85,850,2058,2033,0,10.6845,
113,0,4181.54,4158.46,4177.44,4229.23,4163.08,4167.18,4166.67,4165.13,4224.1,4174.87,4183.59,4201.54,4187.69,4193.33,524,2057,2035,0,10.6924,
114,0,4174.36,4151.79,4182.56,4234.36,4158.46,4169.74,4168.72,4165.13,4226.15,4177.44,4180.51,4207.69,4184.62,4188.21,837,2058,2035,0,10.7003,
115,0,4177.95,4153.33,4178.97,4232.82,4160.51,4170.26,4176.92,4167.69,4233.33,4179.49,4184.62,4206.67,4186.67,4190.26,847,2056,2037,0,10.7081,
116,0,4172.82,4149.74,4174.87,4235.9,4159.49,4166.15,4175.9,4157.44,4237.44,4170.26,4184.62,4203.59,4186.15,4186.15,850,2055,2037,0,10.716,
117,0,4164.1,4142.05,4175.38,4243.59,4154.87,4163.08,4172.31,4153.33,4237.44,4161.54,4174.87,4208.72,4178.97,4175.9,524,2054,2039,0,10.7239,
118,0,4164.62,4143.59,4171.28,4243.59,4156.92,4167.18,4177.44,4161.03,4242.05,4160,4168.72,4211.79,4176.41,4175.9,837,2054,2042,0,10.7318,
119,0,4160.51,4141.03,4172.31,4241.54,4161.03,4172.82,4182.05,4161.54,4248.21,4155.38,4170.26,4205.64,4177.95,4176.92,847,2052,2041,0,10.7397,
120,0,4160.51,4144.1,4174.36,4238.97,4166.15,4171.28,4176.92,4158.97,4243.08,4157.95,4173.85,4207.69,4181.03,4175.9,850,2054,2040,0,10.7475,
121,0,4172.82,4164.62,4175.9,4231.28,4167.18,4170.26,4170.26,4159.49,4240.51,4165.64,4172.82,4208.72,4183.08,4178.97,524,2050,2043,0,10.7554,
122,0,4181.03,4181.54,4178.46,4223.08,4167.69,4172.82,4174.36,4157.95,4244.62,4165.64,4172.82,4206.15,4181.03,4180,837,2048,2044,0,10.7633,
123,0,4176.41,4178.97,4169.23,4224.62,4169.74,4167.18,4173.85,4154.36,4246.15,4158.46,4166.15,4210.26,4167.18,4168.72,847,2048,2045,0,10.7712,
124,0,4166.67,4172.31,4165.13,4231.28,4165.13,4167.69,4164.62,4153.85,4249.23,4154.36,4153.85,4212.31,4151.79,4155.38,850,2047,2044,0,10.7791,
125,0,4167.18,4175.9,4172.31,4226.67,4162.05,4169.23,4169.74,4162.56,4244.62,4162.05,4162.56,4211.28,4158.97,4163.08,524,2044,2043,0,10.7869,
126,0,4166.15,4170.77,4171.28,4227.69,4158.46,4163.08,4177.95,4162.56,4244.62,4158.97,4164.62,4210.26,4160,4162.56,837,2044,2045,0,10.7948,
127,0,4160,4158.46,4167.18,4235.38,4155.9,4161.54,4176.41,4152.82,4251.79,4147.18,4149.74,4212.82,4146.15,4149.23,847,2042,2044,0,10.8027,
128,0,4164.1,4161.54,4167.69,4232.31,4161.03,4163.59,4173.33,4158.46,4247.18,4152.82,4154.36,4214.87,4147.18,4151.79,850,2042,2044,0,10.8106,
0,0,4166.67,4168.21,4170.77,4229.74,4162.05,4165.13,4164.62,4162.05,4243.59,4157.44,4164.1,4211.79,4155.38,4156.92,548,2041,2048,0,10.8106,
1,0,4167.18,4172.82,4168.72,4230.77,4163.59,4162.56,4157.95,4149.74,4247.69,4153.33,4159.49,4211.79,4160,4156.41,831,2040,2045,0,10.8185,
2,0,4165.64,4168.72,4166.67,4237.95,4161.03,4160.51,4158.46,4138.97,4251.28,4149.23,4154.87,4214.87,4157.44,4154.87,837,2043,2047,0,10.8263,
3,0,4161.54,4158.46,4165.64,4246.15,4155.9,4163.08,4157.44,4144.1,4248.72,4152.82,4156.41,4217.44,4152.82,4155.38,842,2043,2047,0,10.8342,
4,0,4165.13,4160.51,4162.05,4241.03,4162.05,4169.74,4164.1,4158.97,4238.97,4159.49,4158.46,4217.95,4156.41,4158.46,876,2040,2046,0,10.8421,
5,0,4165.64,4165.64,4165.64,4235.38,4166.67,4174.36,4173.85,4163.59,4236.92,4156.92,4157.44,4220,4157.95,4153.33,573,2040,2047,0,10.85,
6,0,4168.21,4169.74,4170.26,4231.28,4169.74,4174.87,4175.9,4169.23,4232.82,4162.56,4162.05,4222.05,4161.54,4152.31,790,2041,2044,0,10.8579,
7,0,4171.28,4172.31,4168.72,4228.72,4172.31,4176.41,4177.44,4177.44,4225.13,4174.36,4163.08,4218.46,4163.59,4156.41,807,2041,2046,0,10.8657,
8,0,4166.15,4168.72,4167.18,4231.28,4168.72,4172.31,4179.49,4176.41,4225.13,4170.77,4158.97,4218.46,4157.44,4153.33,785,2041,2045,0,10.8736,
9,0,4162.05,4164.62,4166.15,4237.95,4164.1,4166.67,4175.9,4171.28,4226.67,4165.64,4162.56,4220.51,4156.41,4152.31,866,2041,2045,0,10.8815,
10,0,4161.03,4161.54,4167.69,4244.1,4157.44,4165.64,4164.1,4162.56,4228.72,4162.56,4161.03,4214.36,4156.92,4152.82,837,2043,2046,0,10.8894,
11,0,4167.18,4165.64,4169.74,4238.97,4158.46,4164.62,4161.54,4157.95,4234.87,4163.08,4158.46,4211.28,4160.51,4155.9,847,2044,2043,0,10.8973,
12,0,4172.82,4170.77,4173.33,4228.72,4161.54,4168.21,4169.23,4157.44,4241.54,4168.72,4163.08,4211.79,4164.62,4159.49,850,2043,2042,0,10.9051,
13,0,4173.33,4172.31,4177.95,4227.69,4161.54,4171.28,4170.26,4149.74,4242.56,4162.56,4162.05,4211.79,4159.49,4156.92,524,2044,2040,0,10.913,
14,0,4175.9,4172.82,4175.9,4232.31,4166.15,4165.13,4168.21,4141.54,4242.56,4150.26,4156.41,4215.9,4154.36,4154.36,837,2045,2040,0,10.9209,
15,0,4175.38,4170.77,4173.33,4232.31,4170.26,4164.1,4163.59,4141.03,4248.21,4150.26,4154.87,4213.33,4154.36,4154.36,847,2045,2038,0,10.9288,
16,0,4177.44,4177.44,4172.82,4225.13,4174.87,4168.21,4161.03,4146.67,4245.64,4162.05,4159.49,4208.21,4162.56,4162.56,0,2045,2037,0,10.9367,
17,0,4183.08,4185.64,4175.38,4223.59,4178.46,4167.18,4160,4149.23,4240.51,4163.59,4164.62,4209.74,4169.23,4171.28,0,2044,2036,0,10.9445,
18,0,4184.1,4182.05,4179.49,4226.67,4173.85,4166.15,4154.36,4144.1,4246.67,4152.82,4166.67,4211.79,4166.15,4168.72,0,2043,2036,0,10.9524,
19,0,4182.05,4181.03,4173.33,4224.62,4168.72,4167.18,4156.92,4142.56,4246.15,4155.38,4164.1,4213.85,4162.05,4163.08,0,2043,2036,0,10.9603,
20,0,4174.87,4180,4170.26,4230.26,4165.13,4166.15,4161.03,4143.08,4244.1,4155.38,4154.36,4214.36,4158.97,4155.38,0,2041,2034,0,10.9682,
21,0,4173.33,4178.46,4173.33,4234.36,4168.72,4164.62,4161.03,4145.13,4247.69,4150.26,4153.33,4213.85,4162.56,4157.44,0,2041,2035,0,10.9761,
22,0,4184.62,4187.18,4173.85,4222.05,4183.08,4169.74,4167.18,4155.9,4238.97,4160.51,4168.72,4210.77,4174.36,4174.36,0,2040,2034,0,10.9839,
23,0,4197.44,4197.44,4180,4214.36,4184.1,4172.31,4172.31,4166.67,4229.23,4172.82,4182.56,4200,4182.05,4184.62,0,2040,2035,0,10.9918,
24,0,4197.44,4196.41,4176.92,4216.92,4179.49,4166.67,4164.62,4167.18,4232.82,4171.79,4184.62,4201.54,4183.08,4181.54,0,2040,2035,0,10.9997,
25,0,4189.74,4188.21,4174.87,4218.46,4181.54,4168.21,4158.46,4161.54,4238.46,4168.21,4178.46,4204.1,4182.05,4177.44,0,2039,2033,0,11.0076,
26,0,4191.79,4190.26,4181.54,4215.9,4184.1,4175.38,4170.77,4162.56,4232.31,4176.41,4179.49,4200.51,4185.13,4182.56,0,2038,2032,0,11.0155,
27,0,4194.87,4194.36,4173.85,4218.97,4184.1,4175.38,4181.03,4166.15,4229.23,4181.03,4181.54,4204.1,4183.08,4182.56,0,2040,2034,0,11.0233,
28,0,4184.62,4186.67,4168.72,4226.15,4184.62,4173.33,4176.92,4162.05,4234.36,4170.26,4170.26,4207.69,4172.82,4170.77,0,2035,2034,0,11.0312,
29,0,4177.44,4181.54,4171.28,4225.64,4185.13,4168.72,4171.79,4165.13,4232.31,4169.74,4165.64,4209.74,4172.82,4167.18,0,2036,2034,0,11.0391,
30,0,4172.31,4173.33,4163.08,4232.82,4172.82,4163.59,4166.15,4163.59,4237.44,4170.77,4161.54,4214.87,4168.21,4162.56,0,2040,2035,0,11.047,
31,0,4171.79,4172.82,4158.97,4235.9,4169.74,4167.18,4163.59,4157.44,4239.49,4163.59,4160,4216.92,4161.03,4157.44,0,2041,2034,0,11.0549,
32,0,4186.15,4191.79,4173.33,4222.56,4186.15,4174.36,4169.23,4168.72,4224.62,4172.82,4175.38,4206.15,4176.41,4169.74,0,2044,2035,0,11.0627,
33,0,4191.28,4198.46,4183.59,4218.97,4189.74,4173.85,4171.79,4176.92,4221.54,4184.1,4182.05,4197.44,4189.23,4181.03,0,2046,2035,0,11.0706,
34,0,4184.1,4186.67,4174.36,4224.62,4181.03,4168.72,4170.26,4171.28,4227.69,4182.56,4176.41,4204.1,4178.46,4177.95,0,2046,2034,0,11.0785,
35,0,4182.56,4182.05,4174.36,4224.62,4172.31,4171.28,4169.74,4167.18,4230.26,4173.33,4169.23,4207.69,4164.62,4168.72,0,2048,2036,0,11.0864,
36,0,4189.74,4187.69,4184.1,4220.51,4172.82,4175.9,4172.31,4167.69,4231.28,4172.82,4173.33,4206.15,4172.31,4166.67,0,2049,2038,0,11.0943,
37,0,4187.18,4187.69,4173.85,4221.54,4176.41,4169.23,4170.26,4166.15,4228.72,4176.92,4180,4210.26,4184.62,4168.72,0,2048,2036,0,11.1022,
38,0,4173.33,4179.49,4166.15,4225.13,4173.33,4164.62,4163.08,4158.97,4230.26,4170.26,4174.87,4212.31,4178.46,4163.59,0,2050,2037,0,11.11,
62,0,4152.82,4158.46,4156.41,4238.97,4170.26,4165.64,4161.54,4155.9,4238.97,4161.03,4152.31,4218.97,4158.46,4155.38,0,2045,2041,0,11.2991,
63,0,4154.87,4163.59,4155.9,4240.51,4170.77,4161.54,4163.08,4162.56,4233.33,4165.64,4154.36,4219.49,4165.13,4163.08,0,2045,2042,0,11.3069,
64,0,4162.05,4166.15,4163.59,4237.95,4171.28,4160.51,4157.95,4162.56,4231.28,4169.74,4157.95,4215.38,4168.21,4164.1,580,2050,2045,0,11.3148,
65,0,4168.21,4170.77,4167.18,4228.72,4174.36,4168.72,4157.95,4159.49,4230.77,4175.38,4165.64,4212.31,4170.77,4165.13,831,2050,2044,0,11.3227,
66,0,4168.72,4171.79,4167.69,4228.72,4173.33,4172.82,4162.05,4156.92,4227.18,4182.56,4174.36,4209.74,4182.05,4173.85,837,2049,2045,0,11.3306,
67,0,4172.82,4171.79,4171.28,4231.79,4178.46,4167.18,4167.18,4163.08,4219.49,4189.74,4184.62,4208.21,4194.87,4186.15,842,2049,2046,0,11.3385,
68,0,4173.33,4169.74,4174.36,4232.31,4182.56,4168.72,4168.72,4170.26,4218.97,4185.13,4183.59,4205.64,4190.77,4185.13,875,2044,2046,0,11.3463,
69,0,4168.72,4168.21,4168.72,4231.79,4180,4173.85,4168.21,4170.77,4222.56,4176.92,4174.87,4206.67,4180.51,4177.44,573,2047,2048,0,11.3542,
70,0,4163.08,4166.15,4157.95,4235.9,4177.95,4169.74,4167.18,4164.62,4230.77,4175.9,4172.31,4214.36,4176.41,4172.82,790,2043,2048,0,11.3621,
71,0,4155.9,4158.46,4154.87,4244.62,4173.85,4164.1,4159.49,4154.87,4244.62,4169.23,4165.13,4215.9,4170.77,4165.64,807,2046,2048,0,11.37,
72,0,4158.97,4163.08,4156.41,4241.03,4176.41,4164.62,4156.92,4156.41,4243.08,4167.18,4165.64,4213.33,4173.85,4169.23,785,2044,2048,0,11.3779,
73,0,4161.03,4167.18,4157.44,4237.44,4183.59,4168.21,4160.51,4163.08,4230.26,4170.26,4171.28,4214.36,4176.92,4173.85,866,2043,2046,0,11.3857,
74,0,4153.85,4158.46,4154.87,4242.05,4181.03,4166.15,4161.03,4161.54,4229.74,4166.67,4162.05,4222.05,4167.69,4163.59,837,2040,2047,0,11.3936,
75,0,4156.41,4158.46,4150.77,4238.97,4174.36,4163.08,4161.03,4157.44,4234.87,4166.67,4154.87,4225.64,4163.59,4158.46,847,2038,2045,0,11.4015,
76,0,4162.56,4165.64,4157.44,4233.85,4172.31,4164.62,4164.1,4157.44,4234.36,4168.21,4162.56,4216.92,4168.72,4164.62,849,2036,2044,0,11.4094,
77,0,4169.74,4170.77,4162.05,4229.74,4180,4166.67,4171.28,4157.95,4233.33,4172.31,4172.82,4211.28,4178.46,4174.36,524,2035,2044,0,11.4173,
78,0,4173.33,4172.31,4160.51,4228.72,4186.15,4171.79,4176.92,4161.03,4236.41,4173.85,4170.77,4210.77,4182.05,4174.36,837,2032,2044,0,11.4251,
79,0,4172.82,4178.46,4166.67,4230.77,4185.64,4173.85,4177.95,4168.21,4230.26,4178.97,4169.74,4209.74,4182.56,4173.85,847,2034,2040,0,11.433,
80,0,4174.87,4183.08,4166.67,4226.67,4187.69,4169.74,4175.9,4172.82,4216.92,4189.23,4177.44,4208.21,4188.72,4180,849,2033,2039,0,11.4409,
81,0,4172.31,4174.36,4164.1,4227.69,4183.08,4171.79,4169.74,4168.72,4220,4183.59,4172.31,4206.67,4182.05,4174.87,524,2033,2036,0,11.4488,
82,0,4172.82,4173.85,4167.69,4228.72,4180,4175.38,4169.74,4170.77,4222.56,4180,4169.74,4208.72,4177.95,4173.33,837,2032,2033,0,11.4567,
83,0,4176.41,4177.95,4169.23,4226.15,4184.62,4172.82,4171.28,4173.85,4220.51,4185.13,4175.38,4208.21,4181.54,4178.97,847,2033,2030,0,11.4645,
84,0,4169.74,4167.69,4168.21,4233.85,4181.03,4169.74,4165.13,4163.59,4233.33,4175.9,4168.21,4208.72,4173.33,4172.82,849,2033,2030,0,11.4724,
85,0,4167.18,4165.13,4164.1,4234.36,4178.97,4172.31,4170.26,4163.59,4233.33,4168.72,4163.59,4211.28,4167.18,4169.23,524,2036,2029,0,11.4803,
86,0,4170.26,4170.77,4168.72,4229.23,4180,4177.44,4179.49,4172.31,4224.62,4171.79,4168.72,4208.72,4169.74,4174.36,837,2038,2029,0,11.4882,
87,0,4173.33,4172.31,4173.33,4229.23,4184.62,4176.41,4177.95,4170.77,4224.1,4175.9,4174.87,4208.72,4175.9,4179.49,847,2042,2030,0,11.4961,
88,0,4170.77,4168.72,4168.21,4233.33,4188.21,4173.33,4172.82,4166.67,4227.69,4175.9,4172.82,4211.79,4175.38,4175.9,849,2043,2031,0,11.5039,
89,0,4164.62,4166.15,4160,4236.92,4181.03,4177.95,4171.79,4169.74,4230.77,4169.74,4164.1,4213.33,4168.21,4166.15,524,2046,2032,0,11.5118,
90,0,4164.62,4169.23,4155.38,4236.41,4180,4180,4178.46,4178.97,4227.69,4168.21,4162.56,4218.97,4168.72,4164.62,837,2047,2032,0,11.5197,
91,0,4166.67,4167.69,4161.54,4238.97,4182.05,4174.87,4179.49,4176.92,4228.21,4168.21,4158.97,4218.97,4168.21,4165.64,847,2050,2033,0,11.5276,
92,0,4169.23,4167.69,4166.67,4234.87,4181.54,4173.33,4174.87,4171.79,4232.31,4170.26,4163.59,4213.85,4170.26,4168.72,849,2052,2032,0,11.5355,
93,0,4170.77,4170.77,4163.59,4229.23,4177.44,4176.41,4174.36,4175.38,4230.26,4173.33,4171.79,4210.77,4173.33,4171.79,524,2055,2034,0,11.5433,
94,0,4167.69,4169.23,4166.67,4231.79,4176.41,4171.79,4175.9,4173.33,4227.69,4171.28,4168.21,4208.72,4171.79,4170.77,837,2056,2032,0,11.5512,
95,0,4168.72,4169.74,4169.23,4233.85,4179.49,4164.62,4173.85,4165.13,4227.69,4170.26,4165.64,4214.87,4173.33,4172.82,847,2055,2032,0,11.5591,
96,0,4167.18,4169.74,4167.18,4235.38,4175.9,4169.74,4167.69,4158.46,4232.82,4167.18,4162.05,4220.51,4167.69,4167.69,849,2056,2032,0,11.567,
97,0,4164.62,4169.23,4166.15,4231.79,4177.44,4174.87,4169.23,4164.1,4234.36,4166.15,4161.03,4215.9,4161.54,4161.54,524,2055,2029,0,11.5749,
98,0,4166.15,4169.23,4164.62,4228.21,4178.97,4171.79,4169.23,4165.64,4232.31,4168.21,4166.15,4215.38,4168.72,4165.13,837,2058,2030,0,11.5827,
99,0,4167.18,4171.79,4162.56,4232.82,4172.31,4170.77,4162.56,4155.38,4237.95,4163.59,4164.1,4218.97,4169.23,4164.62,847,2058,2031,0,11.5906,
100,0,4168.72,4178.97,4155.38,4233.85,4176.92,4174.87,4168.21,4160.51,4235.38,4166.15,4162.56,4218.46,4160,4162.05,849,2056,2029,0,11.5985,
101,0,4169.23,4181.03,4157.95,4229.23,4182.56,4181.54,4180.51,4171.28,4227.18,4176.92,4166.67,4212.82,4164.1,4165.64,524,2054,2032,0,11.6064,
102,0,4178.97,4184.62,4168.21,4220.51,4183.08,4183.59,4182.05,4174.36,4221.54,4183.59,4176.92,4211.79,4187.18,4178.97,837,2054,2028,0,11.6143,
103,0,4192.82,4189.74,4168.21,4217.95,4189.23,4179.49,4182.05,4180.51,4214.87,4190.77,4189.23,4212.82,4204.62,4195.38,847,2053,2029,0,11.6221,
104,0,4190.26,4180.51,4171.79,4225.13,4187.18,4181.03,4186.15,4188.21,4209.74,4199.49,4200,4203.59,4207.69,4205.64,849,2049,2028,0,11.63,
105,0,4188.21,4173.85,4174.36,4224.1,4183.08,4183.59,4188.21,4196.92,4199.49,4209.74,4210.26,4195.38,4220,4215.38,524,2047,2030,0,11.6379,
106,0,4185.64,4170.26,4170.26,4226.67,4182.56,4177.95,4182.56,4196.41,4196.41,4205.64,4208.21,4194.36,4220,4208.72,837,2047,2032,0,11.6458,
107,0,4173.85,4158.97,4167.18,4236.41,4176.92,4172.82,4176.41,4187.18,4208.72,4197.44,4197.44,4201.03,4203.59,4190.77,847,2043,2030,0,11.6537,
108,0,4168.72,4154.36,4165.64,4238.46,4177.44,4176.41,4180,4188.21,4214.36,4200.51,4195.9,4205.13,4204.1,4189.74,849,2046,2030,0,11.6615,
109,0,4173.33,4160,4171.79,4233.33,4178.46,4183.59,4186.67,4192.82,4206.15,4201.54,4200.51,4197.95,4211.28,4197.95,524,2046,2030,0,11.6694,
110,0,4179.49,4166.15,4173.33,4230.26,4175.9,4183.59,4190.77,4187.18,4199.49,4202.05,4206.67,4196.92,4212.31,4202.56,837,2042,2030,0,11.6773,
111,0,4170.26,4155.9,4167.18,4237.95,4172.31,4182.05,4187.18,4178.97,4209.74,4196.41,4200.51,4206.15,4203.08,4192.82,847,2042,2032,0,11.6852,
112,0,4157.95,4143.08,4165.64,4248.21,4169.23,4181.54,4182.56,4181.03,4218.97,4184.62,4188.21,4211.28,4194.36,4181.03,849,2038,2029,0,11.6931,
113,0,4165.64,4152.31,4168.21,4241.03,4171.79,4180.51,4186.67,4189.23,4212.31,4189.74,4192.31,4205.13,4201.03,4186.15,524,2039,2031,0,11.7009,
114,0,4172.82,4161.03,4172.31,4232.82,4171.79,4181.54,4181.03,4182.56,4217.44,4194.87,4195.38,4200,4204.1,4189.74,837,2039,2033,0,11.7088,
115,0,4166.67,4157.95,4170.77,4235.9,4170.77,4176.92,4175.9,4178.46,4225.64,4192.31,4192.31,4207.69,4198.46,4183.59,847,2039,2034,0,11.7167,
116,0,4163.08,4157.44,4166.15,4239.49,4169.74,4176.41,4186.15,4190.26,4220,4191.28,4192.31,4209.74,4196.41,4178.97,849,2038,2038,0,11.7246,
117,0,4170.77,4166.67,4167.69,4235.9,4171.28,4181.54,4186.67,4193.85,4211.28,4190.26,4195.9,4203.59,4203.59,4184.62,524,2036,2037,0,11.7325,
118,0,4178.97,4169.74,4169.74,4231.79,4175.9,4176.92,4175.9,4185.64,4208.72,4190.77,4197.95,4203.08,4207.18,4191.79,837,2036,2037,0,11.7403,
119,0,4171.28,4158.46,4171.79,4234.87,4172.82,4174.87,4174.36,4177.95,4216.41,4189.74,4191.28,4203.59,4199.49,4187.18,847,2038,2038,0,11.7482,
120,0,4170.26,4165.13,4172.31,4229.74,4179.49,4180.51,4180,4185.13,4216.92,4195.38,4194.36,4199.49,4205.13,4190.26,849,2037,2041,0,11.7561,
121,0,4180.51,4178.97,4173.85,4222.05,4188.72,4180,4177.95,4190.26,4211.79,4201.54,4203.59,4195.38,4216.41,4196.92,524,2036,2042,0,11.764,
122,0,4181.54,4171.79,4177.95,4227.18,4183.08,4176.41,4175.38,4180.51,4216.92,4195.9,4198.46,4197.95,4207.69,4190.26,837,2039,2045,0,11.7719,
123,0,4174.36,4163.59,4174.36,4232.31,4177.44,4176.41,4178.46,4178.97,4222.05,4189.74,4190.77,4205.64,4195.9,4184.62,847,2038,2047,0,11.7798,
124,0,4163.59,4158.46,4169.23,4236.41,4172.31,4177.44,4177.44,4181.54,4220.51,4181.54,4184.62,4207.18,4190.26,4180,849,2039,2050,0,11.7876,
125,0,4160.51,4152.82,4165.13,4240,4169.23,4174.36,4174.87,4173.33,4222.05,4175.38,4182.05,4209.23,4188.21,4173.33,524,2039,2052,0,11.7955,
126,0,4161.54,4149.23,4162.56,4243.59,4168.72,4173.33,4177.95,4169.23,4229.74,4175.38,4180.51,4212.31,4186.67,4170.77,837,2040,2053,0,11.8034,
127,0,4161.54,4151.28,4167.18,4243.59,4170.26,4174.36,4176.41,4175.9,4232.31,4178.97,4180,4209.74,4189.74,4174.36,847,2040,2055,0,11.8113,
128,0,4168.72,4161.03,4169.23,4233.33,4176.41,4170.77,4171.28,4179.49,4228.72,4188.21,4189.74,4209.23,4202.56,4184.62,849,2039,2056,0,11.8192,
0,0,4171.28,4164.1,4168.21,4229.23,4174.36,4172.31,4168.21,4169.74,4234.87,4184.62,4193.33,4208.72,4204.1,4185.64,555,2042,2057,0,11.8192,
1,0,4168.72,4161.54,4166.15,4233.85,4171.28,4177.44,4173.85,4167.18,4234.36,4179.49,4189.23,4208.21,4198.46,4182.05,831,2047,2057,0,11.827,
2,0,4160,4151.79,4163.08,4240.51,4174.36,4180.51,4180.51,4183.59,4220,4186.67,4187.18,4210.26,4194.36,4178.46,837,2045,2053,0,11.8349,
3,0,4156.41,4147.18,4166.67,4245.13,4175.9,4181.03,4180.51,4194.87,4211.28,4190.77,4188.72,4207.18,4192.82,4175.9,842,2045,2052,0,11.8428,
4,0,4176.41,4172.31,4169.23,4229.23,4183.08,4178.97,4177.95,4191.28,4206.67,4194.36,4197.95,4203.08,4199.49,4185.13,875,2042,2047,0,11.8507,
5,0,4187.69,4193.33,4169.23,4215.9,4187.69,4174.36,4167.18,4182.56,4210.26,4193.33,4194.36,4203.59,4196.41,4184.62,573,2041,2045,0,11.8586,
6,0,4177.95,4188.72,4166.15,4221.54,4183.08,4168.72,4158.97,4184.1,4218.46,4184.62,4180.51,4209.74,4180.51,4169.74,790,2042,2043,0,11.8664,
7,0,4176.41,4188.21,4163.08,4225.64,4183.08,4173.33,4163.08,4188.72,4216.41,4181.03,4172.82,4212.31,4166.67,4162.05,807,2041,2040,0,11.8743,
8,0,4176.41,4189.23,4164.1,4226.67,4184.1,4175.38,4163.59,4181.03,4216.41,4175.9,4163.08,4210.26,4155.9,4157.44,785,2036,2035,0,11.8822,
9,0,4168.21,4181.03,4155.38,4232.31,4178.97,4169.23,4158.97,4170.77,4226.15,4166.67,4156.41,4218.97,4149.74,4150.77,866,2039,2033,0,11.8901,
10,0,4167.69,4182.56,4154.36,4232.31,4173.85,4169.74,4157.44,4161.54,4235.9,4163.59,4158.97,4220.51,4151.28,4148.21,837,2040,2028,0,11.898,
11,0,4180,4193.33,4164.62,4224.1,4177.95,4171.79,4163.59,4167.69,4231.79,4171.28,4163.08,4211.79,4156.92,4153.85,847,2041,2026,0,11.9058,
12,1,4180,4192.82,4164.62,4224.1,4177.95,4171.79,4163.59,4167.69,4231.79,4170.77,4163.08,4211.79,4156.92,4153.33,809,2041,2026,0,11.9137,
13,1,4180,4192.31,4164.62,4224.1,4177.95,4171.79,4163.59,4167.69,4231.79,4170.26,4163.08,4211.79,4156.92,4152.82,771,2041,2026,0,11.9216,
14,1,4180,4191.79,4164.62,4224.1,4177.95,4171.79,4163.59,4167.69,4231.79,4169.74,4163.08,4211.79,4156.92,4152.31,733,2041,2026,0,11.9295,
15,1,4180,4191.28,4164.62,4224.1,4177.95,4171.79,4163.59,4167.69,4231.79,4169.23,4163.08,4211.79,4156.92,4151.79,695,2041,2026,0,11.9374,
16,1,4180,4190.77,4164.62,4224.1,4177.95,4171.79,4163.59,4167.69,4231.79,4168.72,4163.08,4211.79,4156.92,4151.28,657,2041,2026,0,11.9452,
17,1,4180,4190.26,4164.62,4224.1,4177.95,4171.79,4163.59,4167.69,4231.79,4168.21,4163.08,4211.79,4156.92,4150.77,619,2041,2026,0,11.9531,
18,1,4180,4189.74,4164.62,4224.1,4177.95,4171.79,4163.59,4167.69,4231.79,4167.69,4163.08,4211.79,4156.92,4150.26,581,2041,2026,0,11.961,
19,1,4180,4189.23,4164.62,4224.1,4177.95,4171.79,4163.59,4167.69,4231.79,4167.18,4163.08,4211.79,4156.92,4149.74,543,2041,2026,0,11.9689,
20,1,4180,4188.72,4164.62,4224.1,4177.95,4171.79,4163.59,4167.69,4231.79,4166.67,4163.08,4211.79,4156.92,4149.23,505,2041,2026,0,11.9768,
21,1,4180,4188.21,4164.62,4224.1,4177.95,4171.79,4163.59,4167.69,4231.79,4166.15,4163.08,4211.79,4156.92,4148.72,467,2041,2026,0,11.9846,
22,1,4180,4187.69,4164.62,4224.1,4177.95,4171.79,4163.59,4167.69,4231.79,4165.64,4163.08,4211.79,4156.92,4148.21,429,2041,2026,0,11.9925,
23,1,4180,4187.18,4164.62,4224.1,4177.95,4171.79,4163.59,4167.69,4231.79,4165.13,4163.08,4211.79,4156.92,4147.69,391,2041,2026,0,12.0004,
24,1,4180,4186.67,4164.62,4224.1,4177.95,4171.79,4163.59,4167.69,4231.79,4164.62,4163.08,4211.79,4156.92,4147.18,353,2041,2026,0,12.0083,
25,1,4180,4186.15,4164.62,4224.1,4177.95,4171.79,4163.59,4167.69,4231.79,4164.1,4163.08,4211.79,4156.92,4146.67,315,2041,2026,0,12.0162,
26,1,4180,4185.64,4164.62,4224.1,4177.95,4171.79,4163.59,4167.69,4231.79,4163.59,4163.08,4211.79,4156.92,4146.15,277,2041,2026,0,12.024,
27,1,4180,4185.13,4164.62,4224.1,4177.95,4171.79,4163.59,4167.69,4231.79,4163.08,4163.08,4211.79,4156.92,4145.64,239,2041,2026,0,12.0319,
28,1,4180,4184.62,4164.62,4224.1,4177.95,4171.79,4163.59,4167.69,4231.79,4162.56,4163.08,4211.79,4156.92,4145.13,201,2041,2026,0,12.0398,
29,1,4180,4184.1,4164.62,4224.1,4177.95,4171.79,4163.59,4167.69,4231.79,4162.05,4163.08,4211.79,4156.92,4144.62,163,2041,2026,0,12.0477,
30,1,4180,4183.59,4164.62,4224.1,4177.95,4171.79,4163.59,4167.69,4231.79,4161.54,4163.08,4211.79,4156.92,4144.1,125,2041,2026,0,12.0556,
31,1,4180,4183.08,4164.62,4224.1,4177.95,4171.79,4163.59,4167.69,4231.79,4161.03,4163.08,4211.79,4156.92,4143.59,87,2041,2026,0,12.0634,
32,1,4180,4182.56,4164.62,4224.1,4177.95,4171.79,4163.59,4167.69,4231.79,4160.51,4163.08,4211.79,4156.92,4143.08,49,2041,2026,0,12.0713,
33,0,4172.82,4177.44,4163.59,4228.72,4175.9,4175.38,4168.21,4166.15,4232.31,4155.38,4155.38,4214.87,4150.77,4142.56,0,2048,2031,0,12.0792,
34,0,4175.9,4177.95,4161.03,4229.23,4173.33,4171.28,4167.69,4171.79,4235.9,4152.31,4156.92,4216.41,4155.38,4144.1,0,2047,2033,0,12.0871,
35,0,4173.85,4178.46,4159.49,4233.33,4171.79,4170.77,4170.26,4173.85,4233.33,4157.44,4164.1,4216.41,4156.92,4147.18,0,2046,2035,0,12.095,
36,0,4170.77,4174.36,4167.69,4232.31,4172.82,4179.49,4178.97,4178.97,4225.13,4167.18,4167.69,4209.23,4157.44,4150.26,0,2046,2036,0,12.1028,
37,0,4171.79,4177.44,4162.05,4229.23,4172.82,4178.97,4176.41,4180.51,4227.69,4163.08,4161.54,4213.85,4156.92,4149.23,0,2045,2035,0,12.1107,
38,0,4171.28,4177.95,4157.44,4232.31,4170.26,4170.77,4165.64,4164.62,4239.49,4148.72,4151.79,4222.56,4147.18,4140.51,0,2042,2036,0,12.1186,
39,0,4174.87,4180.51,4163.59,4230.26,4178.46,4170.77,4169.23,4156.92,4237.44,4155.38,4156.41,4218.97,4147.18,4142.05,0,2044,2034,0,12.1265,
40,0,4179.49,4188.21,4164.62,4223.59,4184.1,4175.38,4171.79,4171.79,4225.13,4171.79,4167.18,4210.77,4161.54,4153.33,0,2043,2038,0,12.1344,
41,0,4172.31,4183.59,4166.15,4226.15,4175.9,4169.74,4163.59,4174.36,4229.23,4165.64,4161.03,4210.26,4160.51,4150.26,0,2044,2037,0,12.1422,
42,0,4166.67,4176.41,4165.64,4228.72,4176.92,4164.1,4164.1,4166.67,4236.41,4157.44,4156.41,4213.85,4152.31,4145.64,0,2041,2038,0,12.1501,
43,0,4165.64,4176.92,4163.59,4230.26,4175.9,4170.26,4166.15,4165.13,4236.41,4154.36,4157.44,4211.79,4152.31,4146.67,0,2041,2040,0,12.158,
44,0,4167.18,4179.49,4165.64,4231.28,4169.23,4172.82,4167.18,4172.82,4229.74,4157.44,4158.97,4211.79,4156.41,4150.77,0,2041,2041,0,12.1659,
45,0,4166.15,4177.95,4164.62,4231.28,4173.33,4166.15,4176.92,4178.97,4222.05,4168.72,4165.64,4212.31,4161.54,4152.31,0,2039,2042,0,12.1738,
46,0,4156.92,4167.69,4163.59,4238.97,4174.87,4167.69,4177.95,4173.85,4224.1,4168.72,4168.21,4205.13,4160.51,4147.18,0,2040,2041,0,12.1816,
47,0,4160,4170.77,4163.08,4237.95,4174.36,4174.36,4173.85,4177.95,4220,4171.28,4171.79,4200.51,4164.1,4150.26,0,2040,2043,0,12.1895,
48,0,4169.74,4183.59,4166.67,4227.69,4179.49,4174.87,4175.38,4182.56,4219.49,4174.36,4172.82,4203.59,4167.18,4154.87,0,2039,2046,0,12.1974,
49,0,4171.79,4184.1,4170.77,4227.69,4177.95,4170.77,4172.82,4173.33,4231.79,4166.67,4167.18,4209.23,4160.51,4149.74,0,2038,2047,0,12.2053,
50,0,4171.79,4180,4165.13,4232.31,4171.79,4168.72,4168.72,4168.21,4232.31,4163.08,4168.21,4211.28,4160,4150.77,0,2038,2050,0,12.2132,
51,0,4177.44,4184.62,4170.77,4228.72,4172.31,4176.41,4174.87,4176.41,4221.54,4170.26,4174.87,4203.59,4167.69,4161.54,0,2039,2052,0,12.221,
52,0,4183.59,4190.77,4174.87,4223.08,4181.03,4180,4187.69,4184.1,4213.33,4181.03,4178.46,4202.56,4173.85,4166.67,0,2040,2054,0,12.2289,
53,0,4174.87,4183.08,4165.13,4231.28,4180,4173.85,4186.15,4176.41,4216.41,4180,4171.79,4207.18,4168.21,4155.38,0,2041,2055,0,12.2368,
54,0,4163.59,4175.9,4161.54,4237.95,4175.38,4172.31,4174.87,4169.74,4225.13,4172.31,4167.18,4208.21,4163.08,4147.69,0,2041,2057,0,12.2447,
55,0,4168.72,4181.54,4163.59,4228.21,4181.03,4173.33,4171.79,4177.95,4227.18,4172.31,4170.26,4208.21,4164.62,4150.77,0,2042,2054,0,12.2526,
56,0,4171.28,4183.59,4167.69,4224.1,4182.05,4172.82,4171.28,4178.46,4227.69,4170.26,4162.56,4205.64,4156.92,4146.67,0,2042,2053,0,12.2604,
57,0,4166.15,4181.54,4166.67,4225.13,4183.08,4171.28,4174.36,4171.79,4229.23,4168.21,4158.97,4209.23,4155.38,4143.59,0,2044,2054,0,12.2683,
58,0,4167.18,4184.1,4165.64,4221.03,4188.72,4172.82,4177.95,4169.74,4229.23,4168.21,4170.26,4207.18,4167.69,4150.77,0,2044,2053,0,12.2762,
59,0,4178.97,4192.31,4172.82,4217.44,4190.77,4175.38,4176.41,4165.13,4224.62,4175.9,4182.05,4196.92,4178.97,4163.59,0,2047,2050,0,12.2841,
60,0,4183.08,4194.87,4171.79,4222.56,4183.59,4173.85,4172.31,4165.13,4217.95,4186.67,4185.13,4197.95,4182.05,4170.26,0,2048,2050,0,12.292,
61,0,4173.85,4182.05,4165.64,4234.87,4171.28,4172.82,4169.23,4174.36,4219.49,4181.54,4177.95,4204.62,4177.44,4161.03,0,2048,2046,0,12.2998,
93,0,4173.85,4169.23,4170.26,4231.79,4173.33,4180.51,4179.49,4178.46,4231.28,4168.72,4164.62,4208.21,4162.05,4155.38,524,2048,2025,0,12.5519,
94,0,4174.87,4170.26,4170.77,4228.21,4174.87,4182.56,4182.56,4174.87,4230.26,4162.56,4166.67,4207.69,4165.64,4153.85,837,2046,2028,0,12.5598,
95,0,4177.44,4168.72,4171.79,4229.23,4172.82,4176.92,4175.9,4171.79,4231.79,4160.51,4166.67,4212.31,4167.18,4152.82,847,2046,2028,0,12.5677,
96,0,4172.31,4167.18,4165.64,4234.36,4169.74,4172.31,4172.82,4173.85,4231.28,4166.15,4163.08,4214.87,4164.62,4149.23,849,2045,2028,0,12.5756,
97,0,4169.74,4166.67,4169.23,4234.36,4170.26,4178.97,4175.38,4175.9,4226.67,4171.28,4166.15,4210.77,4167.18,4150.26,524,2044,2031,0,12.5834,
98,0,4173.85,4169.74,4171.28,4228.72,4176.92,4178.97,4173.85,4175.38,4221.54,4175.38,4176.41,4210.26,4173.33,4155.38,837,2042,2031,0,12.5913,
99,0,4171.28,4169.23,4169.74,4232.82,4170.77,4174.87,4169.23,4169.74,4228.72,4172.31,4174.87,4210.77,4173.33,4155.9,847,2042,2033,0,12.5992,
100,0,4172.82,4170.77,4167.18,4234.87,4170.26,4175.9,4174.36,4170.26,4229.74,4174.36,4175.9,4211.79,4177.44,4161.03,849,2041,2033,0,12.6071,
101,0,4174.36,4172.31,4164.1,4230.77,4178.97,4178.97,4177.95,4168.21,4227.69,4176.41,4177.44,4212.31,4176.41,4161.54,524,2040,2034,0,12.615,
102,0,4166.67,4165.64,4163.59,4233.33,4174.87,4178.97,4170.77,4161.03,4235.9,4169.74,4169.23,4212.82,4169.74,4152.31,837,2040,2032,0,12.6228,
103,0,4167.18,4165.13,4161.03,4232.82,4172.82,4175.38,4169.23,4165.64,4229.23,4174.87,4173.33,4213.33,4176.41,4156.92,847,2040,2034,0,12.6307,
104,0,4171.28,4167.18,4165.13,4230.26,4177.44,4176.41,4172.82,4174.87,4215.38,4183.08,4181.54,4207.69,4182.05,4164.62,849,2039,2033,0,12.6386,
105,0,4170.77,4166.67,4171.28,4230.26,4179.49,4178.46,4174.87,4179.49,4215.38,4183.08,4181.03,4206.15,4177.95,4164.1,524,2040,2036,0,12.6465,
106,0,4171.28,4164.1,4170.26,4232.82,4176.92,4177.95,4176.41,4179.49,4223.08,4182.05,4177.95,4207.69,4174.87,4163.08,837,2039,2036,0,12.6544,
107,0,4173.33,4164.62,4172.31,4229.74,4175.38,4175.9,4172.82,4176.41,4224.62,4181.03,4181.03,4205.64,4175.38,4164.1,847,2041,2039,0,12.6622,
108,0,4182.05,4174.87,4175.38,4218.46,4182.56,4179.49,4179.49,4183.59,4217.95,4183.59,4187.18,4205.13,4182.05,4166.67,849,2040,2039,0,12.6701,
109,0,4189.74,4181.03,4179.49,4214.87,4183.59,4186.15,4187.69,4186.67,4217.95,4184.1,4183.59,4206.15,4180.51,4167.18,524,2043,2041,0,12.678,
110,0,4194.36,4183.08,4183.59,4215.9,4183.59,4182.05,4180.51,4176.41,4222.56,4181.54,4182.56,4204.62,4178.97,4170.77,837,2040,2041,0,12.6859,
111,0,4191.28,4181.03,4184.62,4216.41,4185.13,4176.41,4171.79,4168.72,4225.64,4176.92,4186.15,4202.56,4182.05,4173.85,847,2040,2045,0,12.6938,
112,0,4183.59,4174.36,4182.05,4220,4180,4175.9,4170.26,4169.74,4225.64,4173.33,4179.49,4203.08,4176.41,4166.67,849,2040,2044,0,12.7016,
113,0,4183.59,4173.85,4172.82,4222.05,4173.85,4172.82,4162.56,4170.26,4224.62,4178.97,4176.41,4207.18,4173.33,4163.08,524,2040,2046,0,12.7095,
114,0,4181.03,4171.28,4172.82,4226.15,4169.23,4171.79,4154.87,4161.54,4232.82,4176.41,4177.95,4209.23,4176.41,4164.62,837,2041,2045,0,12.7174,
115,0,4174.36,4166.67,4176.92,4229.74,4171.28,4172.31,4164.1,4159.49,4239.49,4164.1,4174.36,4210.77,4171.79,4162.56,847,2041,2045,0,12.7253,
116,0,4174.36,4168.21,4170.77,4227.69,4174.87,4172.31,4166.67,4168.72,4233.33,4163.08,4172.31,4208.21,4168.72,4163.08,849,2042,2046,0,12.7332,
117,0,4175.9,4169.74,4169.74,4228.21,4173.33,4175.38,4163.59,4169.23,4229.74,4168.72,4174.36,4205.13,4175.9,4166.67,524,2042,2044,0,12.741,
118,0,4176.92,4173.33,4173.33,4228.72,4179.49,4178.46,4175.38,4170.26,4226.15,4174.36,4180.51,4209.23,4184.62,4170.77,837,2042,2044,0,12.7489,
119,0,4173.33,4171.28,4172.82,4230.77,4180.51,4175.38,4170.77,4171.79,4220.51,4174.87,4181.54,4209.74,4181.03,4166.15,847,2042,2043,0,12.7568,
120,0,4169.74,4168.72,4169.23,4233.85,4172.82,4172.31,4156.41,4165.64,4222.56,4174.36,4177.44,4209.23,4177.44,4162.05,849,2040,2043,0,12.7647,
121,0,4167.69,4171.79,4165.64,4232.31,4174.87,4174.87,4162.05,4164.1,4227.69,4178.97,4175.38,4215.38,4180.51,4164.62,524,2040,2043,0,12.7726,
122,0,4160.51,4166.67,4166.67,4237.44,4174.87,4173.33,4166.15,4166.15,4232.31,4173.33,4169.74,4217.95,4171.28,4152.31,837,2040,2046,0,12.7804,
123,0,4164.1,4166.15,4165.64,4236.92,4170.77,4168.21,4163.08,4170.26,4225.64,4173.33,4174.87,4214.87,4170.26,4150.77,847,2040,2044,0,12.7883,
124,0,4172.31,4171.28,4167.18,4230.77,4170.26,4171.79,4171.28,4175.38,4218.97,4183.08,4181.54,4210.26,4181.03,4163.59,849,2038,2044,0,12.7962,
125,0,4174.36,4173.33,4171.79,4229.74,4174.36,4175.38,4177.95,4178.97,4218.46,4188.72,4183.59,4208.72,4185.13,4169.23,524,2039,2043,0,12.8041,
126,0,4178.46,4174.87,4169.23,4228.21,4180.51,4173.33,4172.82,4180,4215.9,4190.77,4187.69,4206.67,4186.67,4171.79,837,2042,2041,0,12.812,
127,0,4181.03,4173.85,4171.28,4227.69,4180.51,4175.38,4165.64,4170.77,4218.46,4186.67,4185.64,4203.59,4185.64,4170.26,847,2043,2042,0,12.8198,
128,0,4179.49,4173.85,4170.77,4228.72,4181.03,4173.85,4162.56,4167.18,4220.51,4188.72,4184.1,4207.69,4185.13,4168.21,849,2043,2038,0,12.8277,
0,0,4171.79,4168.21,4162.56,4236.41,4172.31,4171.79,4161.54,4169.23,4224.62,4187.69,4181.54,4211.28,4175.38,4160,555,2044,2035,0,12.8277,
1,0,4165.64,4161.54,4162.05,4243.08,4165.13,4172.82,4164.62,4166.15,4229.74,4180,4173.85,4209.74,4165.64,4153.85,831,2045,2031,0,12.8356,
2,0,4170.77,4165.13,4168.21,4239.49,4172.31,4171.28,4171.79,4172.31,4224.62,4179.49,4171.28,4209.74,4171.28,4161.03,838,2047,2029,0,12.8435,
3,0,4176.92,4166.67,4174.36,4235.9,4170.77,4171.28,4173.85,4183.08,4221.54,4178.97,4173.33,4206.67,4172.82,4163.59,842,2049,2027,0,12.8514,
4,0,4179.49,4167.18,4172.31,4232.82,4162.56,4170.26,4174.36,4177.95,4228.21,4175.9,4176.92,4208.21,4172.31,4163.08,875,2048,2027,0,12.8592,
5,0,4177.44,4168.72,4166.67,4231.79,4162.05,4171.28,4175.9,4165.64,4235.9,4169.74,4171.28,4213.85,4168.72,4161.03,573,2050,2025,0,12.8671,
6,0,4173.85,4168.21,4169.74,4231.79,4166.67,4172.82,4176.92,4173.33,4231.79,4167.69,4166.67,4213.33,4164.62,4158.46,790,2053,2025,0,12.875,
7,0,4175.38,4165.64,4170.26,4233.85,4171.28,4166.67,4175.38,4182.56,4223.59,4175.38,4171.28,4212.31,4168.72,4157.95,809,2054,2025,0,12.8829,
8,0,4172.31,4162.05,4168.21,4236.41,4168.72,4165.13,4170.77,4170.77,4227.18,4175.38,4170.26,4210.77,4167.69,4151.28,785,2054,2025,0,12.8908,
9,0,4171.28,4167.18,4166.67,4229.23,4169.74,4174.36,4174.36,4168.21,4226.15,4173.85,4169.23,4209.23,4167.18,4148.21,866,2056,2025,0,12.8986,
10,0,4171.28,4171.79,4165.64,4227.69,4171.79,4176.92,4174.36,4177.44,4225.64,4175.38,4172.82,4209.23,4170.26,4150.26,837,2056,2025,0,12.9065,
11,0,4163.59,4162.56,4166.15,4238.46,4167.69,4165.64,4163.08,4177.44,4230.26,4172.31,4169.74,4210.77,4167.69,4149.23,847,2056,2026,0,12.9144,
12,0,4164.62,4161.54,4164.62,4235.9,4170.77,4163.08,4167.18,4179.49,4222.05,4173.85,4171.28,4211.28,4167.69,4150.77,849,2058,2026,0,12.9223,
13,0,4169.23,4167.69,4167.18,4231.79,4171.28,4173.33,4178.46,4180,4219.49,4171.79,4172.31,4207.18,4168.21,4151.28,526,2058,2027,0,12.9302,
14,0,4164.62,4162.56,4168.72,4238.97,4167.18,4176.41,4179.49,4178.97,4225.13,4169.74,4169.74,4209.74,4167.18,4151.28,837,2056,2030,0,12.938,
15,0,4160.51,4153.33,4168.72,4243.08,4169.23,4174.36,4181.03,4181.54,4218.46,4177.44,4171.28,4212.31,4168.21,4151.28,847,2056,2028,0,12.9459,
16,0,4165.64,4160.51,4170.77,4237.95,4171.28,4172.82,4176.92,4175.38,4218.46,4175.38,4169.74,4209.23,4166.67,4149.74,0,2055,2026,0,12.9538,
17,0,4171.79,4176.92,4163.59,4231.28,4171.79,4168.72,4167.69,4167.18,4233.33,4163.08,4166.15,4212.31,4159.49,4150.26,0,2054,2027,0,12.9617,
18,0,4169.23,4177.44,4163.08,4230.77,4167.69,4170.77,4166.15,4165.13,4239.49,4154.36,4161.03,4212.82,4149.74,4148.72,0,2057,2028,0,12.9696,
19,0,4176.92,4180,4174.36,4225.64,4167.69,4174.36,4171.28,4173.33,4227.18,4163.08,4165.64,4208.21,4157.95,4154.36,0,2056,2027,0,12.9774,
20,0,4189.23,4190.26,4175.9,4218.46,4173.33,4172.82,4175.38,4186.15,4221.54,4177.44,4177.44,4206.15,4173.85,4161.54,0,2048,2031,0,12.9853,
21,0,4178.97,4182.56,4172.31,4224.62,4169.74,4167.69,4173.33,4182.56,4233.85,4171.79,4171.28,4208.72,4165.64,4155.9,0,2049,2029,0,12.9932,
22,0,4174.87,4176.41,4168.72,4226.67,4165.64,4168.72,4174.87,4175.38,4232.31,4165.13,4162.05,4210.77,4157.95,4154.36,0,2047,2030,0,13.0011,
23,0,4181.03,4182.56,4170.26,4223.59,4166.67,4174.36,4176.92,4173.85,4226.67,4164.1,4162.05,4204.62,4163.59,4158.46,0,2047,2033,0,13.009,
24,0,4180,4184.1,4170.77,4226.67,4169.23,4170.77,4172.31,4173.33,4231.79,4163.08,4164.62,4204.62,4161.03,4153.33,0,2047,2031,0,13.0168,
25,0,4176.41,4177.44,4167.18,4229.74,4170.26,4167.18,4170.26,4170.26,4236.92,4164.62,4165.64,4211.79,4154.87,4150.77,0,2045,2032,0,13.0247,
26,0,4178.97,4175.38,4172.31,4225.64,4170.26,4175.38,4173.33,4167.69,4237.44,4166.15,4167.18,4208.21,4155.9,4155.38,0,2045,2034,0,13.0326,
27,0,4181.54,4179.49,4173.33,4221.03,4171.28,4173.85,4174.87,4172.82,4234.36,4170.77,4172.31,4205.13,4160.51,4159.49,0,2041,2036,0,13.0405,
28,0,4174.36,4172.31,4168.21,4228.21,4167.18,4166.15,4168.21,4173.33,4237.95,4169.23,4166.67,4208.72,4153.33,4151.79,0,2039,2034,0,13.0484,
29,0,4176.41,4170.77,4171.28,4227.69,4168.72,4173.85,4172.31,4176.92,4238.97,4168.21,4163.59,4209.74,4153.33,4150.26,0,2039,2040,0,13.0562,
30,0,4188.21,4183.08,4173.33,4216.41,4176.41,4181.54,4184.62,4184.62,4229.74,4172.82,4172.82,4206.67,4163.59,4162.05,0,2039,2041,0,13.0641,
31,0,4183.08,4177.44,4172.82,4223.59,4169.74,4180,4178.97,4176.92,4232.31,4168.72,4169.74,4206.67,4158.46,4157.44,0,2038,2045,0,13.072,
32,0,4174.87,4168.72,4166.15,4232.31,4165.13,4177.95,4172.31,4175.9,4234.36,4167.69,4164.1,4211.79,4153.85,4147.69,0,2037,2043,0,13.0799,
33,0,4171.79,4170.77,4161.54,4229.23,4171.28,4178.97,4177.44,4190.26,4227.69,4171.28,4164.62,4211.28,4153.85,4145.13,0,2035,2047,0,13.0878,
34,0,4170.26,4173.85,4167.18,4229.23,4171.79,4180.51,4180.51,4190.77,4226.67,4170.77,4167.69,4209.23,4152.82,4144.62,0,2037,2049,0,13.0956,
35,0,4172.82,4176.41,4168.21,4230.77,4170.26,4176.92,4180,4182.56,4228.72,4174.87,4172.82,4208.72,4159.49,4147.69,0,2034,2049,0,13.1035,
36,1,4172.82,4176.41,4168.21,4230.77,4170.26,4176.92,4180,4182.56,4228.72,4174.87,4172.82,4208.72,4159.49,4148.21,0,2034,2049,0,13.1114,
37,1,4172.82,4176.41,4168.21,4230.77,4170.26,4176.92,4180,4182.56,4228.72,4174.87,4172.82,4208.72,4159.49,4148.72,0,2034,2049,0,13.1193,
38,1,4172.82,4176.41,4168.21,4230.77,4170.26,4176.92,4180,4182.56,4228.72,4174.87,4172.82,4208.72,4159.49,4149.23,0,2034,2049,0,13.1272,
39,1,4172.82,4176.41,4168.21,4230.77,4170.26,4176.92,4180,4182.56,4228.72,4174.87,4172.82,4208.72,4159.49,4149.74,0,2034,2049,0,13.135,
40,1,4172.82,4176.41,4168.21,4230.77,4170.26,4176.92,4180,4182.56,4228.72,4174.87,4172.82,4208.72,4159.49,4150.26,0,2034,2049,0,13.1429,
41,1,4172.82,4176.41,4168.21,4230.77,4170.26,4176.92,4180,4182.56,4228.72,4174.87,4172.82,4208.72,4159.49,4150.77,0,2034,2049,0,13.1508,
42,1,4172.82,4176.41,4168.21,4230.77,4170.26,4176.92,4180,4182.56,4228.72,4174.87,4172.82,4208.72,4159.49,4151.28,0,2034,2049,0,13.1587,
43,1,4172.82,4176.41,4168.21,4230.77,4170.26,4176.92,4180,4182.56,4228.72,4174.87,4172.82,4208.72,4159.49,4151.79,0,2034,2049,0,13.1666,
44,1,4172.82,4176.41,4168.21,4230.77,4170.26,4176.92,4180,4182.56,4228.72,4174.87,4172.82,4208.72,4159.49,4152.31,0,2034,2049,0,13.1744,
45,1,4172.82,4176.41,4168.21,4230.77,4170.26,4176.92,4180,4182.56,4228.72,4174.87,4172.82,4208.72,4159.49,4152.82,0,2034,2049,0,13.1823,
46,1,4172.82,4176.41,4168.21,4230.77,4170.26,4176.92,4180,4182.56,4228.72,4174.87,4172.82,4208.72,4159.49,4153.33,0,2034,2049,0,13.1902,
47,1,4172.82,4176.41,4168.21,4230.77,4170.26,4176.92,4180,4182.56,4228.72,4174.87,4172.82,4208.72,4159.49,4153.85,0,2034,2049,0,13.1981,
48,1,4172.82,4176.41,4168.21,4230.77,4170.26,4176.92,4180,4182.56,4228.72,4174.87,4172.82,4208.72,4159.49,4154.36,0,2034,2049,0,13.206,
49,1,4172.82,4176.41,4168.21,4230.77,4170.26,4176.92,4180,4182.56,4228.72,4174.87,4172.82,4208.72,4159.49,4154.87,0,2034,2049,0,13.2139,
50,1,4172.82,4176.41,4168.21,4230.77,4170.26,4176.92,4180,4182.56,4228.72,4174.87,4172.82,4208.72,4159.49,4155.38,0,2034,2049,0,13.2217,
51,1,4172.82,4176.41,4168.21,4230.77,4170.26,4176.92,4180,4182.56,4228.72,4174.87,4172.82,4208.72,4159.49,4155.9,0,2034,2049,0,13.2296,
52,1,4172.82,4176.41,4168.21,4230.77,4170.26,4176.92,4180,4182.56,4228.72,4174.87,4172.82,4208.72,4159.49,4156.41,0,2034,2049,0,13.2375,
53,1,4172.82,4176.41,4168.21,4230.77,4170.26,4176.92,4180,4182.56,4228.72,4174.87,4172.82,4208.72,4159.49,4156.92,0,2034,2049,0,13.2454,
54,1,4172.82,4176.41,4168.21,4230.77,4170.26,4176.92,4180,4182.56,4228.72,4174.87,4172.82,4208.72,4159.49,4157.44,0,2034,2049,0,13.2533,
55,1,4172.82,4176.41,4168.21,4230.77,4170.26,4176.92,4180,4182.56,4228.72,4174.87,4172.82,4208.72,4159.49,4157.95,0,2034,2049,0,13.2611,
56,1,4172.82,4176.41,4168.21,4230.77,4170.26,4176.92,4180,4182.56,4228.72,4174.87,4172.82,4208.72,4159.49,4158.46,0,2034,2049,0,13.269,
57,1,4172.82,4176.41,4168.21,4230.77,4170.26,4176.92,4180,4182.56,4228.72,4174.87,4172.82,4208.72,4159.49,4158.97,0,2034,2049,0,13.2769,
58,1,4172.82,4176.41,4168.21,4230.77,4170.26,4176.92,4180,4182.56,4228.72,4174.87,4172.82,4208.72,4159.49,4159.49,0,2034,2049,0,13.2848,
59,1,4172.82,4176.41,4168.21,4230.77,4170.26,4176.92,4180,4182.56,4228.72,4174.87,4172.82,4208.72,4159.49,4160,0,2034,2049,0,13.2927,
60,1,4172.82,4176.41,4168.21,4230.77,4170.26,4176.92,4180,4182.56,4228.72,4174.87,4172.82,4208.72,4159.49,4160.51,0,2034,2049,0,13.3005,
61,1,4172.82,4176.41,4168.21,4230.77,4170.26,4176.92,4180,4182.56,4228.72,4174.87,4172.82,4208.72,4159.49,4161.03,0,2034,2049,0,13.3084,
62,1,4172.82,4176.41,4168.21,4230.77,4170.26,4176.92,4180,4182.56,4228.72,4174.87,4172.82,4208.72,4159.49,4161.54,0,2034,2049,0,13.3163,
63,0,4171.79,4177.95,4171.28,4225.13,4171.79,4170.77,4166.67,4171.79,4220,4175.9,4172.31,4208.21,4170.77,4171.79,0,2039,2042,0,13.3242,
64,0,4167.69,4167.69,4170.26,4232.31,4163.59,4167.18,4167.69,4165.64,4227.69,4170.26,4165.64,4213.33,4164.1,4167.18,554,2040,2044,0,13.3321,
65,0,4162.05,4163.59,4165.64,4237.44,4160,4165.64,4166.15,4158.46,4234.87,4158.97,4163.59,4214.87,4155.9,4165.13,831,2041,2046,0,13.3399,
66,0,4162.05,4168.72,4163.59,4233.85,4165.64,4168.72,4164.1,4156.92,4233.85,4154.87,4163.08,4212.31,4156.92,4167.18,836,2040,2047,0,13.3478,
67,0,4170.26,4174.36,4166.67,4226.15,4173.33,4169.74,4165.13,4159.49,4227.69,4164.1,4167.69,4213.85,4168.72,4171.79,842,2038,2047,0,13.3557,
68,0,4177.44,4175.38,4174.87,4225.13,4172.31,4175.38,4162.56,4156.41,4226.15,4169.74,4169.74,4211.28,4170.26,4176.41,875,2039,2046,0,13.3636,
69,0,4184.62,4182.56,4175.9,4221.03,4174.36,4179.49,4166.67,4158.97,4221.03,4172.82,4172.31,4207.69,4167.18,4183.59,575,2039,2048,0,13.3715,
70,0,4179.49,4183.08,4174.87,4217.44,4178.46,4176.41,4174.87,4168.72,4223.59,4168.72,4169.74,4207.69,4163.59,4180,800,2038,2048,0,13.3793,
71,0,4173.85,4178.46,4177.44,4219.49,4181.03,4176.92,4174.87,4169.23,4231.28,4165.64,4168.72,4209.74,4164.1,4173.33,814,2039,2045,0,13.3872,
72,0,4178.46,4185.64,4176.92,4216.41,4182.56,4178.46,4172.31,4161.54,4226.67,4171.79,4174.36,4209.74,4170.77,4176.92,791,2040,2048,0,13.3951,
73,0,4176.41,4188.21,4177.95,4215.9,4172.31,4173.33,4171.28,4158.46,4226.67,4170.77,4173.33,4205.13,4167.69,4177.95,867,2042,2050,0,13.403,
74,0,4172.82,4183.08,4173.85,4220.51,4168.72,4169.74,4174.87,4166.67,4234.36,4169.23,4171.28,4206.67,4165.64,4176.41,837,2044,2049,0,13.4109,
75,0,4171.28,4178.46,4168.72,4227.69,4172.31,4173.33,4177.44,4171.28,4234.36,4168.72,4171.79,4207.69,4168.72,4173.85,848,2041,2049,0,13.4187,
76,0,4168.72,4173.85,4169.74,4231.28,4168.21,4170.26,4172.82,4168.72,4232.31,4166.67,4171.79,4205.64,4166.67,4172.31,849,2042,2048,0,13.4266,
77,0,4168.21,4172.31,4168.21,4229.23,4163.59,4166.15,4167.18,4167.69,4235.38,4166.15,4171.79,4210.26,4163.08,4174.36,534,2048,2046,0,13.4345,
78,0,4165.13,4168.72,4166.15,4234.36,4161.03,4167.69,4162.05,4160,4242.05,4157.95,4162.05,4214.87,4155.9,4166.15,837,2048,2046,0,13.4424,
79,0,4165.64,4170.26,4164.1,4235.9,4166.15,4167.69,4160.51,4156.92,4238.46,4161.03,4157.95,4216.41,4157.95,4164.1,848,2046,2044,0,13.4503,
80,0,4169.23,4171.28,4163.59,4230.26,4173.33,4169.74,4161.03,4164.1,4231.79,4169.74,4163.59,4212.82,4163.08,4171.28,849,2045,2044,0,13.4581,
81,0,4171.79,4174.36,4170.77,4226.67,4174.36,4169.23,4161.03,4172.82,4230.26,4168.21,4169.74,4208.21,4162.05,4173.33,534,2046,2043,0,13.466,
82,0,4177.95,4180.51,4171.28,4227.18,4171.79,4167.69,4168.21,4180,4222.05,4170.77,4173.33,4207.69,4164.62,4175.38,837,2048,2041,0,13.4739,
83,0,4178.46,4172.82,4169.74,4230.26,4169.74,4177.44,4180.51,4186.15,4213.33,4177.95,4172.82,4204.62,4165.13,4178.46,848,2047,2042,0,13.4818,
84,0,4184.62,4176.41,4174.36,4221.03,4177.44,4181.03,4184.1,4193.33,4207.18,4184.1,4178.46,4204.1,4169.74,4186.15,849,2050,2040,0,13.4897,
85,0,4193.33,4196.92,4174.87,4211.79,4183.59,4170.77,4180,4189.74,4211.28,4183.08,4183.59,4206.15,4174.36,4191.79,534,2051,2038,0,13.4975,
86,0,4194.36,4203.59,4173.33,4215.38,4179.49,4171.28,4180,4180.51,4220,4175.38,4176.41,4204.1,4170.26,4186.15,837,2049,2038,0,13.5054,
87,0,4193.33,4199.49,4172.82,4213.33,4184.62,4176.92,4178.97,4182.05,4219.49,4172.82,4172.31,4205.13,4165.64,4179.49,848,2048,2039,0,13.5133,
88,0,4188.21,4196.41,4172.82,4210.77,4187.69,4174.36,4170.77,4174.36,4228.72,4166.67,4166.67,4209.23,4156.92,4172.31,849,2050,2036,0,13.5212,
89,0,4182.56,4195.38,4165.64,4216.92,4181.03,4171.79,4167.69,4158.46,4241.54,4156.92,4157.44,4213.85,4148.21,4166.15,534,2051,2037,0,13.5291,
90,0,4177.44,4191.79,4157.95,4224.1,4178.46,4171.79,4167.18,4155.9,4245.13,4153.33,4151.79,4216.41,4145.64,4162.05,837,2050,2035,0,13.5369,
91,0,4172.31,4187.69,4161.54,4227.69,4177.95,4172.82,4161.03,4161.03,4243.08,4152.82,4150.77,4220.51,4146.15,4156.41,848,2050,2037,0,13.5448,
92,0,4174.87,4188.21,4162.05,4224.1,4180.51,4175.38,4167.18,4167.18,4234.87,4156.92,4154.36,4220,4146.67,4157.44,849,2052,2035,0,13.5527,
27,0,4188.72,4188.21,4182.05,4220.51,4165.64,4172.31,4180,4166.15,4227.69,4173.33,4177.44,4205.13,4181.03,4187.18,0,2046,2038,0,14.0493,
28,0,4182.56,4185.64,4181.03,4225.13,4167.18,4172.31,4177.95,4167.69,4225.64,4167.69,4169.23,4204.1,4164.62,4177.95,0,2049,2033,0,14.0571,
29,0,4180.51,4182.56,4181.03,4227.18,4164.62,4168.72,4172.31,4173.85,4224.62,4166.15,4176.41,4207.69,4169.74,4177.44,0,2049,2031,0,14.065,
30,0,4185.13,4174.87,4186.15,4227.69,4164.1,4171.79,4168.72,4168.72,4228.21,4169.23,4186.15,4203.08,4188.21,4189.74,0,2046,2029,0,14.0729,
31,0,4185.64,4172.82,4189.74,4227.18,4164.62,4166.15,4159.49,4151.79,4234.36,4164.1,4185.64,4198.46,4186.15,4193.33,0,2045,2027,0,14.0808,
32,0,4182.56,4179.49,4186.67,4228.21,4157.95,4155.38,4148.72,4146.67,4236.92,4154.87,4180.51,4201.54,4175.9,4185.64,0,2050,2023,0,14.0887,
33,0,4183.08,4183.59,4186.15,4226.67,4157.95,4158.46,4148.72,4154.87,4236.92,4158.97,4182.05,4204.1,4181.03,4183.59,0,2048,2022,0,14.0965,
34,0,4186.15,4182.05,4181.54,4218.97,4170.26,4166.15,4161.03,4165.13,4231.28,4172.31,4186.67,4204.62,4189.74,4190.26,0,2047,2019,0,14.1044,
35,0,4177.95,4175.38,4176.92,4220.51,4169.23,4165.13,4162.05,4168.21,4230.26,4171.79,4181.54,4203.08,4181.03,4184.1,0,2046,2017,0,14.1123,
36,0,4174.36,4175.9,4178.97,4226.67,4169.74,4166.15,4158.97,4174.36,4226.15,4173.85,4184.1,4200.51,4180.51,4178.97,0,2046,2013,0,14.1202,
37,0,4178.97,4178.46,4180,4224.62,4177.95,4173.85,4170.77,4182.05,4216.92,4184.62,4192.82,4199.49,4189.23,4185.64,0,2046,2012,0,14.1281,
38,0,4168.21,4166.67,4176.92,4231.28,4168.21,4174.87,4174.36,4177.95,4220,4173.33,4182.05,4203.59,4177.95,4178.97,0,2044,2012,0,14.1359,
39,0,4159.49,4160,4170.26,4240,4158.46,4166.15,4165.13,4173.33,4224.1,4161.03,4170.26,4210.26,4166.15,4167.18,0,2043,2009,0,14.1438,
40,0,4162.56,4166.67,4169.74,4237.44,4165.13,4164.62,4165.13,4171.79,4223.08,4162.56,4169.23,4209.74,4166.67,4166.15,0,2042,2009,0,14.1517,
41,0,4164.62,4170.26,4169.74,4233.33,4170.77,4169.74,4174.87,4170.77,4225.64,4161.54,4167.69,4209.23,4165.64,4165.13,0,2040,2005,0,14.1596,
42,0,4161.03,4168.72,4165.13,4233.33,4168.72,4171.28,4178.46,4171.28,4229.74,4155.38,4165.13,4214.87,4159.49,4160,0,2041,2004,0,14.1675,
43,0,4160.51,4167.69,4170.77,4229.23,4168.21,4168.72,4177.44,4170.77,4227.18,4157.95,4164.1,4215.9,4157.95,4162.05,0,2040,2006,0,14.1753,
44,0,4170.26,4175.38,4175.38,4220,4176.92,4170.77,4181.54,4180,4216.92,4170.77,4169.23,4213.33,4168.72,4172.31,0,2041,2006,0,14.1832,
45,0,4173.85,4178.46,4175.9,4223.08,4176.41,4173.33,4177.44,4185.13,4215.9,4172.82,4173.85,4207.69,4172.31,4173.85,0,2042,2007,0,14.1911,
46,0,4176.41,4177.95,4180,4224.1,4172.82,4167.69,4173.85,4184.62,4215.9,4173.85,4181.03,4201.03,4177.95,4176.92,0,2042,2007,0,14.199,
47,0,4184.62,4183.59,4181.54,4218.46,4178.46,4165.13,4178.46,4190.77,4209.23,4182.56,4192.82,4197.44,4192.31,4189.74,0,2044,2007,0,14.2069,
48,0,4184.62,4182.05,4182.56,4223.59,4175.38,4169.23,4176.41,4185.13,4214.87,4181.54,4193.85,4193.33,4194.36,4192.82,0,2044,2007,0,14.2147,
49,0,4182.56,4181.03,4181.03,4223.59,4171.79,4168.72,4173.85,4181.03,4215.9,4183.08,4190.77,4193.85,4191.79,4194.36,0,2044,2010,0,14.2226,
50,0,4180,4182.56,4178.46,4222.05,4173.85,4167.69,4176.41,4188.21,4208.72,4186.15,4188.21,4198.46,4188.21,4192.31,0,2043,2011,0,14.2305,
51,0,4175.9,4183.08,4177.95,4225.13,4176.92,4169.23,4180,4190.26,4206.67,4183.59,4187.69,4201.54,4185.13,4186.15,0,2043,2013,0,14.2384,
52,0,4174.87,4185.13,4176.41,4217.44,4181.03,4171.28,4181.54,4189.74,4208.21,4186.15,4191.79,4200,4188.21,4187.69,0,2042,2016,0,14.2463,
53,0,4171.79,4183.08,4177.95,4216.41,4180,4172.31,4180,4188.72,4208.72,4186.15,4192.82,4194.36,4190.26,4188.21,0,2045,2020,0,14.2541,
54,0,4168.72,4182.05,4175.38,4225.13,4181.03,4168.21,4178.46,4187.18,4202.05,4188.21,4193.33,4198.97,4191.79,4186.67,0,2045,2022,0,14.262,
55,0,4166.15,4180,4170.77,4229.23,4181.03,4169.74,4177.44,4184.1,4197.95,4192.82,4188.21,4205.13,4189.74,4183.08,0,2044,2027,0,14.2699,
56,0,4161.54,4175.38,4171.79,4229.74,4174.87,4172.82,4172.82,4181.03,4204.1,4187.69,4178.97,4209.23,4180.51,4173.85,0,2046,2028,0,14.2778,
57,0,4158.97,4172.82,4164.62,4230.77,4172.31,4166.67,4169.74,4176.92,4211.79,4180,4179.49,4214.36,4176.92,4166.67,0,2047,2031,0,14.2857,
58,0,4155.38,4170.26,4161.03,4234.36,4171.28,4166.67,4173.85,4175.38,4214.87,4176.92,4180,4212.31,4177.95,4163.59,0,2047,2032,0,14.2935,
59,0,4154.36,4170.26,4164.62,4238.97,4170.26,4172.31,4180,4180.51,4211.79,4180,4180,4208.21,4178.97,4168.21,0,2047,2036,0,14.3014,
60,0,4153.85,4169.74,4165.13,4239.49,4168.72,4171.79,4182.05,4177.95,4214.87,4177.44,4179.49,4206.15,4177.44,4169.74,0,2048,2039,0,14.3093,
61,0,4153.85,4169.74,4166.67,4234.36,4166.15,4175.9,4184.1,4169.23,4224.1,4166.67,4176.41,4204.62,4174.36,4166.67,0,2047,2042,0,14.3172,
62,0,4163.08,4181.03,4168.72,4228.72,4173.85,4177.95,4184.62,4173.33,4223.08,4165.64,4175.9,4207.18,4176.92,4170.77,0,2045,2047,0,14.3251,
63,0,4167.69,4182.56,4171.79,4229.74,4178.46,4173.33,4174.87,4181.03,4216.92,4173.33,4176.92,4205.13,4180,4174.36,0,2041,2048,0,14.3329,
64,0,4163.59,4169.23,4172.31,4234.87,4173.85,4172.31,4174.87,4184.1,4211.28,4180.51,4184.62,4199.49,4182.05,4177.95,554,2045,2051,0,14.3408,
65,0,4159.49,4167.69,4170.77,4240.51,4167.18,4170.26,4182.56,4182.56,4211.28,4176.92,4186.15,4199.49,4181.54,4180,831,2045,2053,0,14.3487,
66,1,4159.49,4167.69,4170.77,4240.51,4167.18,4170.26,4182.56,4182.56,4211.28,4176.92,4185.64,4199.49,4180.51,4179.49,831,2045,2053,0,14.3566,
67,1,4159.49,4167.69,4170.77,4240.51,4167.18,4170.26,4182.56,4182.56,4211.28,4176.92,4185.13,4199.49,4179.49,4178.97,831,2045,2053,0,14.3645,
68,1,4159.49,4167.69,4170.77,4240.51,4167.18,4170.26,4182.56,4182.56,4211.28,4176.92,4184.62,4199.49,4178.46,4178.46,831,2045,2053,0,14.3723,
69,1,4159.49,4167.69,4170.77,4240.51,4167.18,4170.26,4182.56,4182.56,4211.28,4176.92,4184.1,4199.49,4177.44,4177.95,831,2045,2053,0,14.3802,
70,1,4159.49,4167.69,4170.77,4240.51,4167.18,4170.26,4182.56,4182.56,4211.28,4176.92,4183.59,4199.49,4176.41,4177.44,831,2045,2053,0,14.3881,
71,1,4159.49,4167.69,4170.77,4240.51,4167.18,4170.26,4182.56,4182.56,4211.28,4176.92,4183.08,4199.49,4175.38,4176.92,831,2045,2053,0,14.396,
72,1,4159.49,4167.69,4170.77,4240.51,4167.18,4170.26,4182.56,4182.56,4211.28,4176.92,4182.56,4199.49,4174.36,4176.41,831,2045,2053,0,14.4039,
73,1,4159.49,4167.69,4170.77,4240.51,4167.18,4170.26,4182.56,4182.56,4211.28,4176.92,4182.05,4199.49,4173.33,4175.9,831,2045,2053,0,14.4117,
74,1,4159.49,4167.69,4170.77,4240.51,4167.18,4170.26,4182.56,4182.56,4211.28,4176.92,4181.54,4199.49,4172.31,4175.38,831,2045,2053,0,14.4196,
75,1,4159.49,4167.69,4170.77,4240.51,4167.18,4170.26,4182.56,4182.56,4211.28,4176.92,4181.03,4199.49,4171.28,4174.87,831,2045,2053,0,14.4275,
76,1,4159.49,4167.69,4170.77,4240.51,4167.18,4170.26,4182.56,4182.56,4211.28,4176.92,4180.51,4199.49,4170.26,4174.36,831,2045,2053,0,14.4354,
77,1,4159.49,4167.69,4170.77,4240.51,4167.18,4170.26,4182.56,4182.56,4211.28,4176.92,4180,4199.49,4169.23,4173.85,831,2045,2053,0,14.4433,
78,1,4159.49,4167.69,4170.77,4240.51,4167.18,4170.26,4182.56,4182.56,4211.28,4176.92,4179.49,4199.49,4168.21,4173.33,831,2045,2053,0,14.4511,
79,1,4159.49,4167.69,4170.77,4240.51,4167.18,4170.26,4182.56,4182.56,4211.28,4176.92,4178.97,4199.49,4167.18,4172.82,831,2045,2053,0,14.459,
80,1,4159.49,4167.69,4170.77,4240.51,4167.18,4170.26,4182.56,4182.56,4211.28,4176.92,4178.46,4199.49,4166.15,4172.31,831,2045,2053,0,14.4669,
81,1,4159.49,4167.69,4170.77,4240.51,4167.18,4170.26,4182.56,4182.56,4211.28,4176.92,4177.95,4199.49,4165.13,4171.79,831,2045,2053,0,14.4748,
82,1,4159.49,4167.69,4170.77,4240.51,4167.18,4170.26,4182.56,4182.56,4211.28,4176.92,4177.44,4199.49,4164.1,4171.28,831,2045,2053,0,14.4827,
83,1,4159.49,4167.69,4170.77,4240.51,4167.18,4170.26,4182.56,4182.56,4211.28,4176.92,4176.92,4199.49,4163.08,4170.77,831,2045,2053,0,14.4905,
84,1,4159.49,4167.69,4170.77,4240.51,4167.18,4170.26,4182.56,4182.56,4211.28,4176.92,4176.41,4199.49,4162.05,4170.26,831,2045,2053,0,14.4984,
85,1,4159.49,4167.69,4170.77,4240.51,4167.18,4170.26,4182.56,4182.56,4211.28,4176.92,4175.9,4199.49,4161.03,4169.74,831,2045,2053,0,14.5063,
86,1,4159.49,4167.69,4170.77,4240.51,4167.18,4170.26,4182.56,4182.56,4211.28,4176.92,4175.38,4199.49,4160,4169.23,831,2045,2053,0,14.5142,
87,1,4159.49,4167.69,4170.77,4240.51,4167.18,4170.26,4182.56,4182.56,4211.28,4176.92,4174.87,4199.49,4158.97,4168.72,831,2045,2053,0,14.5221,
88,1,4159.49,4167.69,4170.77,4240.51,4167.18,4170.26,4182.56,4182.56,4211.28,4176.92,4174.36,4199.49,4157.95,4168.21,831,2045,2053,0,14.5299,
89,1,4159.49,4167.69,4170.77,4240.51,4167.18,4170.26,4182.56,4182.56,4211.28,4176.92,4173.85,4199.49,4156.92,4167.69,831,2045,2053,0,14.5378,
90,1,4159.49,4167.69,4170.77,4240.51,4167.18,4170.26,4182.56,4182.56,4211.28,4176.92,4173.33,4199.49,4155.9,4167.18,831,2045,2053,0,14.5457,
91,1,4159.49,4167.69,4170.77,4240.51,4167.18,4170.26,4182.56,4182.56,4211.28,4176.92,4172.82,4199.49,4154.87,4166.67,831,2045,2053,0,14.5536,
92,1,4159.49,4167.69,4170.77,4240.51,4167.18,4170.26,4182.56,4182.56,4211.28,4176.92,4172.31,4199.49,4153.85,4166.15,831,2045,2053,0,14.5615,
93,1,4159.49,4167.69,4170.77,4240.51,4167.18,4170.26,4182.56,4182.56,4211.28,4176.92,4171.79,4199.49,4152.82,4165.64,831,2045,2053,0,14.5693,
94,1,4159.49,4167.69,4170.77,4240.51,4167.18,4170.26,4182.56,4182.56,4211.28,4176.92,4171.28,4199.49,4151.79,4165.13,831,2045,2053,0,14.5772,
95,1,4159.49,4167.69,4170.77,4240.51,4167.18,4170.26,4182.56,4182.56,4211.28,4176.92,4170.77,4199.49,4150.77,4164.62,831,2045,2053,0,14.5851,
96,1,4159.49,4167.69,4170.77,4240.51,4167.18,4170.26,4182.56,4182.56,4211.28,4176.92,4170.26,4199.49,4149.74,4164.1,831,2045,2053,0,14.593,
97,1,4159.49,4167.69,4170.77,4240.51,4167.18,4170.26,4182.56,4182.56,4211.28,4176.92,4169.74,4199.49,4148.72,4163.59,831,2045,2053,0,14.6009,
98,1,4159.49,4167.69,4170.77,4240.51,4167.18,4170.26,4182.56,4182.56,4211.28,4176.92,4169.23,4199.49,4147.69,4163.08,831,2045,2053,0,14.6087,
99,1,4159.49,4167.69,4170.77,4240.51,4167.18,4170.26,4182.56,4182.56,4211.28,4176.92,4168.72,4199.49,4146.67,4162.56,831,2045,2053,0,14.6166,
100,1,4159.49,4167.69,4170.77,4240.51,4167.18,4170.26,4182.56,4182.56,4211.28,4176.92,4168.21,4199.49,4145.64,4162.05,831,2045,2053,0,14.6245,
101,1,4159.49,4167.69,4170.77,4240.51,4167.18,4170.26,4182.56,4182.56,4211.28,4176.92,4167.69,4199.49,4144.62,4161.54,831,2045,2053,0,14.6324,
102,1,4159.49,4167.69,4170.77,4240.51,4167.18,4170.26,4182.56,4182.56,4211.28,4176.92,4167.18,4199.49,4143.59,4161.03,831,2045,2053,0,14.6403,
103,1,4159.49,4167.69,4170.77,4240.51,4167.18,4170.26,4182.56,4182.56,4211.28,4176.92,4166.67,4199.49,4142.56,4160.51,831,2045,2053,0,14.6482,
104,1,4159.49,4167.69,4170.77,4240.51,4167.18,4170.26,4182.56,4182.56,4211.28,4176.92,4166.15,4199.49,4141.54,4160,831,2045,2053,0,14.656,
105,1,4159.49,4167.69,4170.77,4240.51,4167.18,4170.26,4182.56,4182.56,4211.28,4176.92,4165.64,4199.49,4140.51,4159.49,831,2045,2053,0,14.6639,
106,1,4159.49,4167.69,4170.77,4240.51,4167.18,4170.26,4182.56,4182.56,4211.28,4176.92,4165.13,4199.49,4139.49,4158.97,831,2045,2053,0,14.6718,
107,1,4159.49,4167.69,4170.77,4240.51,4167.18,4170.26,4182.56,4182.56,4211.28,4176.92,4164.62,4199.49,4138.46,4158.46,831,2045,2053,0,14.6797,
108,1,4159.49,4167.69,4170.77,4240.51,4167.18,4170.26,4182.56,4182.56,4211.28,4176.92,4164.1,4199.49,4137.44,4157.95,831,2045,2053,0,14.6876,
109,1,4159.49,4167.69,4170.77,4240.51,4167.18,4170.26,4182.56,4182.56,4211.28,4176.92,4163.59,4199.49,4136.41,4157.44,831,2045,2053,0,14.6954,
110,1,4159.49,4167.69,4170.77,4240.51,4167.18,4170.26,4182.56,4182.56,4211.28,4176.92,4163.08,4199.49,4135.38,4156.92,831,2045,2053,0,14.7033,
111,1,4159.49,4167.69,4170.77,4240.51,4167.18,4170.26,4182.56,4182.56,4211.28,4176.92,4162.56,4199.49,4134.36,4156.41,831,2045,2053,0,14.7112,
112,1,4159.49,4167.69,4170.77,4240.51,4167.18,4170.26,4182.56,4182.56,4211.28,4176.92,4162.05,4199.49,4133.33,4155.9,831,2045,2053,0,14.7191,
113,1,4159.49,4167.69,4170.77,4240.51,4167.18,4170.26,4182.56,4182.56,4211.28,4176.92,4161.54,4199.49,4132.31,4155.38,831,2045,2053,0,14.727,
114,1,4159.49,4167.69,4170.77,4240.51,4167.18,4170.26,4182.56,4182.56,4211.28,4176.92,4161.03,4199.49,4131.28,4154.87,831,2045,2053,0,14.7348,
115,1,4159.49,4167.69,4170.77,4240.51,4167.18,4170.26,4182.56,4182.56,4211.28,4176.92,4160.51,4199.49,4130.26,4154.36,831,2045,2053,0,14.7427,
116,1,4159.49,4167.69,4170.77,4240.51,4167.18,4170.26,4182.56,4182.56,4211.28,4176.92,4160,4199.49,4129.23,4153.85,831,2045,2053,0,14.7506,
117,1,4159.49,4167.69,4170.77,4240.51,4167.18,4170.26,4182.56,4182.56,4211.28,4176.92,4159.49,4199.49,4128.21,4153.33,831,2045,2053,0,14.7585,
118,1,4159.49,4167.69,4170.77,4240.51,4167.18,4170.26,4182.56,4182.56,4211.28,4176.92,4158.97,4199.49,4127.18,4152.82,831,2045,2053,0,14.7664,
119,1,4159.49,4167.69,4170.77,4240.51,4167.18,4170.26,4182.56,4182.56,4211.28,4176.92,4158.46,4199.49,4126.15,4152.31,831,2045,2053,0,14.7742,
120,1,4159.49,4167.69,4170.77,4240.51,4167.18,4170.26,4182.56,4182.56,4211.28,4176.92,4157.95,4199.49,4125.13,4151.79,831,2045,2053,0,14.7821,
121,1,4159.49,4167.69,4170.77,4240.51,4167.18,4170.26,4182.56,4182.56,4211.28,4176.92,4157.44,4199.49,4124.1,4151.28,831,2045,2053,0,14.79,
122,1,4159.49,4167.69,4170.77,4240.51,4167.18,4170.26,4182.56,4182.56,4211.28,4176.92,4156.92,4199.49,4123.08,4150.77,831,2045,2053,0,14.7979,
123,1,4159.49,4167.69,4170.77,4240.51,4167.18,4170.26,4182.56,4182.56,4211.28,4176.92,4156.41,4199.49,4122.05,4150.26,831,2045,2053,0,14.8058,
124,1,4159.49,4167.69,4170.77,4240.51,4167.18,4170.26,4182.56,4182.56,4211.28,4176.92,4155.9,4199.49,4121.03,4149.74,831,2045,2053,0,14.8136,
125,1,4159.49,4167.69,4170.77,4240.51,4167.18,4170.26,4182.56,4182.56,4211.28,4176.92,4155.38,4199.49,4120,4149.23,831,2045,2053,0,14.8215,
126,0,4174.87,4198.46,4169.23,4216.41,4173.33,4164.62,4165.13,4162.56,4237.44,4156.41,4142.05,4221.54,4111.28,4136.92,837,2061,2031,0,14.8294,
127,0,4177.95,4204.62,4171.28,4210.77,4180,4168.72,4173.33,4180,4223.08,4168.72,4153.33,4220.51,4118.97,4143.59,844,2059,2031,0,14.8373,
128,0,4167.69,4201.54,4167.69,4214.36,4178.46,4171.28,4174.87,4178.97,4226.67,4162.05,4145.13,4220.51,4111.28,4137.44,847,2059,2031,0,14.8452,
0,0,4158.97,4193.33,4162.56,4219.49,4175.9,4170.26,4175.38,4170.77,4243.59,4150.77,4136.41,4225.64,4100,4131.79,554,2058,2031,0,14.8452,
1,0,4155.9,4187.69,4154.36,4224.62,4174.36,4164.1,4170.77,4164.1,4250.77,4144.1,4134.36,4233.85,4097.44,4128.21,831,2058,2031,0,14.853,
2,0,4158.46,4188.21,4158.97,4227.69,4170.26,4165.64,4159.49,4155.9,4248.72,4139.49,4131.79,4229.74,4099.49,4124.62,839,2056,2033,0,14.8609,
3,0,4164.62,4193.33,4167.18,4222.56,4171.79,4167.18,4158.97,4156.41,4243.59,4148.72,4137.95,4224.62,4110.26,4131.28,849,2056,2035,0,14.8688,
4,0,4157.44,4188.72,4165.13,4225.64,4168.21,4162.56,4160.51,4159.49,4245.13,4155.38,4142.05,4227.18,4113.85,4131.79,875,2054,2035,0,14.8767,
5,0,4152.82,4187.18,4158.46,4230.26,4165.64,4161.03,4157.95,4161.54,4244.62,4152.31,4142.56,4230.26,4113.85,4130.26,578,2050,2035,0,14.8846,
6,0,4164.1,4193.33,4158.46,4226.15,4170.77,4165.64,4162.56,4164.1,4234.87,4156.41,4146.67,4224.62,4120,4139.49,789,2051,2036,0,14.8924,
7,0,4170.77,4191.79,4166.15,4225.64,4167.69,4168.72,4167.69,4162.05,4232.31,4158.46,4147.69,4219.49,4122.56,4144.62,809,2050,2035,0,14.9003,
8,0,4172.31,4193.85,4166.15,4224.1,4166.15,4168.21,4168.21,4166.15,4231.79,4158.97,4150.26,4224.1,4126.67,4148.21,790,2047,2037,0,14.9082,
9,0,4175.38,4200,4164.62,4222.05,4169.23,4171.79,4165.64,4170.26,4231.28,4161.03,4152.31,4221.03,4129.23,4152.31,863,2048,2036,0,14.9161,
10,0,4179.49,4201.03,4169.74,4221.54,4169.74,4173.33,4161.54,4165.13,4234.87,4163.59,4150.77,4215.9,4129.74,4154.36,837,2049,2036,0,14.924,
11,0,4180,4198.97,4170.26,4221.03,4170.77,4172.82,4162.56,4164.1,4235.9,4164.62,4152.31,4218.46,4131.28,4156.41,845,2046,2037,0,14.9318,
12,0,4173.33,4191.79,4169.74,4220.51,4172.82,4176.92,4165.13,4166.15,4236.41,4157.44,4150.77,4216.41,4129.23,4153.85,849,2046,2038,0,14.9397,
13,0,4178.97,4200.51,4167.18,4214.36,4176.41,4175.38,4164.62,4165.13,4236.92,4157.44,4153.33,4212.82,4131.79,4155.38,533,2047,2038,0,14.9476,
14,0,4185.13,4211.28,4166.67,4211.28,4175.9,4169.23,4163.59,4162.05,4238.46,4161.54,4153.85,4217.44,4129.74,4155.9,837,2046,2040,0,14.9555,
15,0,4171.28,4197.95,4165.13,4220.51,4169.74,4164.62,4162.56,4154.36,4245.64,4150.77,4142.56,4225.64,4115.38,4144.1,845,2045,2040,0,14.9634,
16,0,4162.05,4189.74,4156.41,4224.62,4167.18,4165.13,4162.05,4153.33,4247.18,4148.72,4141.03,4228.72,4117.95,4141.54,0,2042,2040,0,14.9712,
17,0,4171.28,4198.97,4160,4217.95,4169.23,4170.26,4163.08,4166.15,4235.38,4162.05,4153.85,4217.95,4133.33,4152.31,0,2043,2039,0,14.9791,
18,0,4178.97,4203.08,4165.64,4212.82,4176.41,4166.67,4168.21,4172.82,4227.18,4168.72,4161.54,4213.85,4136.92,4157.44,0,2042,2039,0,14.987,
19,0,4176.92,4200,4164.1,4211.79,4176.41,4161.03,4168.72,4163.59,4233.33,4163.59,4157.95,4218.46,4130.26,4152.82,0,2043,2038,0,14.9949,
20,0,4172.31,4201.03,4167.18,4213.85,4169.74,4163.59,4160.51,4157.95,4240,4159.49,4152.82,4219.49,4126.67,4152.31,0,2043,2039,0,15.0028,
21,0,4169.74,4200,4166.15,4218.46,4171.28,4162.56,4154.36,4158.97,4241.03,4155.9,4149.23,4221.03,4125.64,4151.28,0,2041,2039,0,15.0106,
22,0,4166.15,4191.79,4165.64,4221.54,4172.31,4163.59,4154.87,4152.31,4245.64,4150.26,4145.64,4218.97,4123.08,4146.67,0,2042,2039,0,15.0185,
23,0,4175.38,4195.9,4169.74,4213.85,4176.41,4171.79,4166.67,4155.9,4241.03,4161.03,4155.9,4214.36,4132.31,4158.46,0,2044,2040,0,15.0264,
24,0,4187.69,4204.62,4175.38,4206.67,4186.67,4176.92,4180.51,4168.21,4233.33,4171.28,4169.23,4206.67,4143.59,4172.31,0,2042,2039,0,15.0343,
25,0,4185.64,4203.59,4177.95,4212.31,4187.18,4170.26,4182.05,4170.26,4235.9,4162.56,4164.1,4204.1,4141.03,4166.67,0,2044,2038,0,15.0422,
26,0,4184.62,4202.05,4173.85,4215.9,4182.56,4164.1,4176.92,4174.36,4236.41,4160.51,4155.9,4210.26,4135.38,4161.03,0,2045,2038,0,15.05,
62,0,4177.44,4178.97,4178.97,4222.05,4171.79,4162.05,4166.67,4177.44,4225.64,4169.74,4173.33,4205.13,4162.05,4173.33,0,2035,2036,0,16.3632,
63,0,4173.85,4171.79,4173.33,4228.21,4167.18,4162.05,4162.56,4164.1,4236.41,4163.08,4163.59,4208.72,4152.31,4167.18,0,2035,2035,0,16.4013,
64,0,4181.54,4180.51,4171.79,4224.1,4172.31,4161.54,4166.15,4171.28,4232.31,4173.33,4168.72,4209.74,4163.59,4176.41,554,2035,2034,0,16.4395,
65,0,4184.1,4185.13,4177.44,4221.54,4177.44,4165.13,4175.38,4183.59,4222.56,4185.13,4179.49,4203.59,4176.92,4185.64,831,2036,2033,0,16.4777,
66,0,4176.92,4178.46,4177.44,4229.23,4172.31,4166.15,4174.87,4175.9,4222.05,4180,4173.85,4207.69,4169.23,4179.49,839,2037,2032,0,16.5158,
67,0,4170.77,4173.85,4168.72,4232.82,4165.13,4161.03,4165.13,4163.08,4230.26,4166.15,4158.46,4213.85,4154.36,4169.23,846,2034,2030,0,16.554,
68,0,4171.28,4176.92,4170.26,4228.72,4168.72,4161.54,4160.51,4166.15,4231.28,4162.05,4157.95,4208.21,4152.82,4169.23,875,2036,2030,0,16.5921,
69,0,4181.54,4185.13,4171.79,4221.03,4178.97,4165.13,4169.74,4179.49,4220.51,4176.41,4172.82,4209.23,4165.13,4182.05,621,2034,2029,0,16.6303,
70,0,4187.69,4186.15,4175.38,4218.97,4176.41,4164.62,4174.87,4180,4221.54,4178.46,4175.9,4205.64,4167.69,4186.15,791,2035,2030,0,16.6684,
71,0,4184.1,4181.54,4178.46,4221.54,4172.31,4161.03,4174.87,4171.79,4227.18,4173.85,4172.31,4199.49,4165.13,4182.56,810,2035,2029,0,16.7066,
72,0,4178.46,4178.46,4169.23,4223.08,4176.41,4162.05,4175.9,4171.28,4224.62,4181.03,4177.44,4203.08,4171.28,4184.1,790,2034,2029,0,16.7447,
73,0,4176.92,4176.92,4173.33,4225.13,4173.33,4164.62,4173.85,4173.33,4224.1,4185.13,4177.44,4205.64,4169.23,4180.51,864,2036,2028,0,16.7829,
74,0,4180,4180.51,4175.38,4223.59,4173.33,4163.59,4175.9,4173.33,4223.59,4183.59,4173.33,4209.74,4163.08,4175.38,837,2038,2029,0,16.821,
75,0,4170.26,4176.92,4165.13,4225.64,4175.9,4164.62,4176.41,4164.62,4229.74,4175.9,4166.67,4214.36,4157.44,4166.67,845,2039,2028,0,16.8592,
76,0,4157.44,4170.26,4161.54,4231.79,4173.33,4165.13,4168.72,4157.95,4236.41,4171.79,4158.97,4216.92,4151.79,4159.49,877,2039,2026,0,16.8974,
77,0,4161.03,4174.36,4164.1,4230.77,4177.44,4164.1,4164.62,4165.13,4231.79,4176.41,4158.97,4220,4154.36,4163.08,533,2041,2025,0,16.9355,
78,0,4164.62,4177.44,4169.74,4228.72,4181.54,4166.15,4163.59,4165.13,4233.85,4172.82,4159.49,4221.03,4156.41,4163.08,837,2043,2024,0,16.9737,
79,0,4165.64,4180.51,4170.26,4225.64,4182.56,4167.18,4166.15,4163.08,4238.46,4169.74,4161.03,4219.49,4158.46,4164.62,845,2048,2024,0,17.0118,
80,0,4171.79,4185.64,4171.79,4222.05,4181.54,4170.26,4169.74,4166.67,4233.85,4171.79,4164.1,4212.82,4157.95,4169.23,877,2045,2024,0,17.05,
81,0,4180.51,4186.67,4178.46,4217.44,4176.92,4173.33,4172.31,4170.26,4231.79,4167.18,4164.1,4209.74,4156.92,4171.28,533,2054,2024,0,17.0881,
82,0,4185.13,4188.72,4178.46,4215.9,4175.38,4173.33,4177.95,4175.9,4228.21,4164.62,4164.62,4208.72,4158.97,4174.36,837,2054,2025,0,17.1263,
83,0,4178.46,4182.56,4176.92,4223.59,4170.26,4166.67,4173.85,4175.38,4227.69,4163.08,4156.92,4207.18,4154.87,4173.33,845,2056,2026,0,17.1644,
84,0,4172.82,4175.38,4171.28,4227.69,4166.15,4163.08,4167.69,4169.74,4233.33,4158.97,4151.79,4214.36,4151.28,4170.26,877,2060,2027,0,17.2026,
85,0,4174.36,4175.38,4172.31,4226.15,4170.26,4169.74,4170.26,4170.77,4234.87,4160,4158.97,4214.36,4153.85,4170.77,533,2062,2029,0,17.2408,
86,0,4173.85,4175.38,4176.92,4230.26,4172.82,4171.28,4170.77,4173.85,4230.77,4168.21,4164.62,4206.15,4157.95,4173.33,837,2063,2032,0,17.2789,
87,0,4169.23,4174.87,4169.23,4232.31,4167.69,4166.15,4167.69,4168.21,4235.38,4171.79,4164.62,4212.31,4161.54,4172.82,845,2067,2033,0,17.3171,
88,0,4165.13,4171.79,4164.1,4232.82,4160.51,4165.64,4166.67,4163.08,4239.49,4169.23,4163.59,4218.46,4160.51,4168.21,877,2068,2038,0,17.3552,
89,0,4169.23,4175.38,4167.69,4229.74,4169.23,4166.67,4170.77,4174.87,4225.64,4177.44,4171.79,4214.36,4166.67,4174.87,533,2068,2037,0,17.3934,
90,0,4174.87,4185.13,4174.87,4222.05,4177.44,4168.72,4175.9,4181.03,4219.49,4185.64,4182.05,4207.69,4174.36,4186.67,837,2070,2039,0,17.4315,
91,0,4177.44,4187.18,4182.05,4216.92,4175.38,4171.28,4180,4174.36,4226.15,4183.08,4184.1,4204.1,4174.87,4189.74,845,2071,2041,0,17.4697,
92,0,4181.03,4184.62,4181.03,4217.44,4175.9,4168.21,4182.05,4178.46,4221.54,4188.21,4183.59,4204.1,4176.41,4189.23,877,2074,2041,0,17.5078,
93,0,4180.51,4185.13,4180.51,4224.62,4173.85,4169.23,4176.92,4184.62,4218.97,4191.79,4183.59,4199.49,4176.41,4188.72,533,2073,2040,0,17.546,
94,0,4177.95,4187.69,4175.9,4225.13,4176.92,4173.85,4177.44,4183.08,4221.54,4192.82,4184.62,4202.56,4173.85,4185.13,837,2076,2040,0,17.5842,
95,0,4172.31,4178.46,4167.69,4226.67,4177.44,4173.85,4180,4180,4222.05,4187.69,4174.36,4213.85,4164.1,4172.82,845,2074,2037,0,17.6223,
96,0,4167.18,4169.23,4168.72,4233.85,4168.21,4169.23,4172.31,4172.82,4231.28,4175.9,4165.64,4216.41,4158.46,4168.21,877,2074,2038,0,17.6605,
97,0,4172.82,4177.44,4168.72,4228.72,4169.74,4169.23,4169.74,4167.69,4235.38,4178.46,4177.95,4209.74,4170.77,4183.08,533,2075,2037,0,17.6986,
98,0,4175.9,4178.46,4172.82,4225.13,4175.9,4171.28,4172.82,4162.56,4231.79,4178.97,4182.05,4203.59,4174.87,4186.15,837,2076,2036,0,17.7368,
99,0,4174.87,4171.79,4173.85,4230.26,4174.87,4165.64,4169.23,4160,4231.79,4172.31,4173.33,4208.21,4167.69,4180,845,2076,2037,0,17.7749,
100,0,4172.31,4168.72,4167.18,4235.9,4168.21,4163.08,4165.64,4166.15,4232.31,4173.85,4171.79,4209.23,4167.69,4180,877,2079,2035,0,17.8131,
101,0,4168.72,4166.15,4169.74,4235.9,4166.15,4169.74,4173.85,4178.46,4224.1,4183.08,4179.49,4200.51,4175.38,4183.08,533,2079,2033,0,17.8512,
102,0,4173.33,4170.77,4173.33,4228.21,4174.87,4171.79,4184.1,4188.72,4208.21,4194.87,4192.82,4197.44,4187.18,4191.28,837,2078,2034,0,17.8894,
103,0,4175.9,4171.28,4175.38,4225.64,4174.87,4172.82,4182.05,4186.15,4212.31,4190.77,4188.72,4200.51,4183.59,4187.69,845,2079,2034,0,17.9276,
104,0,4176.92,4171.28,4178.97,4225.64,4172.31,4174.36,4179.49,4187.69,4221.54,4185.64,4180.51,4203.59,4176.92,4182.05,877,2078,2034,0,17.9657,
105,0,4177.95,4176.92,4177.95,4223.59,4182.05,4172.31,4181.54,4194.36,4215.9,4194.36,4186.15,4202.56,4182.56,4187.18,533,2081,2032,0,18.0039,
106,0,4171.28,4174.36,4174.87,4228.21,4182.56,4168.21,4177.95,4186.15,4217.95,4194.87,4183.59,4205.13,4179.49,4185.13,837,2082,2033,0,18.042,
107,0,4166.15,4170.77,4166.15,4234.36,4177.44,4168.72,4175.38,4176.92,4227.18,4190.26,4177.44,4212.82,4173.85,4180.51,845,2083,2032,0,18.0802,
108,0,4163.08,4169.23,4161.03,4235.9,4171.79,4170.77,4171.79,4168.72,4236.41,4184.62,4176.92,4211.28,4173.85,4178.46,877,2084,2031,0,18.1183,
109,0,4168.72,4172.82,4168.21,4227.18,4176.41,4170.77,4174.36,4169.74,4230.77,4187.69,4183.59,4205.64,4182.05,4182.05,533,2087,2031,0,18.1565,
110,0,4182.56,4177.95,4176.92,4220,4184.62,4172.31,4181.54,4188.21,4213.85,4199.49,4193.33,4200.51,4192.82,4190.26,837,2089,2032,0,18.1946,
111,0,4186.67,4177.95,4182.05,4226.15,4176.41,4171.28,4177.44,4192.82,4216.92,4195.38,4193.33,4195.9,4193.85,4194.87,845,2088,2032,0,18.2328,
112,0,4183.59,4171.79,4180.51,4231.28,4169.23,4168.21,4173.85,4185.64,4225.13,4187.18,4190.77,4196.92,4191.79,4197.44,877,2091,2031,0,18.271,
113,0,4176.41,4159.49,4177.95,4233.85,4168.72,4172.31,4180.51,4189.74,4218.46,4189.74,4187.18,4198.46,4183.59,4191.28,533,2090,2032,0,18.3091,
114,0,4176.92,4166.15,4173.33,4233.33,4171.28,4171.79,4181.03,4193.85,4212.31,4190.77,4185.64,4200,4177.95,4188.21,837,2092,2032,0,18.3473,
115,0,4184.62,4189.74,4167.18,4227.69,4173.85,4162.56,4169.74,4182.56,4221.54,4180,4184.1,4205.64,4177.95,4188.72,845,2094,2031,0,18.3854,
116,0,4179.49,4194.36,4165.64,4226.15,4171.28,4164.62,4162.56,4166.67,4233.85,4168.21,4172.31,4211.28,4164.1,4175.38,877,2094,2032,0,18.4236,
117,0,4178.97,4197.44,4163.59,4221.54,4176.41,4168.21,4163.08,4163.59,4234.36,4168.72,4159.49,4218.46,4149.74,4162.56,533,2098,2030,0,18.4617,
118,0,4186.15,4206.67,4167.69,4217.44,4182.56,4161.54,4160,4163.59,4238.46,4168.72,4153.85,4218.46,4144.62,4160,837,2099,2031,0,18.4999,
119,0,4180.51,4202.56,4166.15,4222.56,4177.44,4161.03,4161.03,4164.62,4243.08,4163.08,4154.87,4214.36,4142.56,4156.92,845,2098,2031,0,18.538,
120,0,4173.85,4197.44,4157.95,4222.56,4175.9,4167.69,4164.62,4165.13,4239.49,4166.15,4157.95,4215.9,4143.59,4156.41,877,2098,2030,0,18.5762,
121,0,4177.44,4201.03,4165.13,4218.97,4178.97,4170.26,4164.1,4160,4241.03,4164.62,4156.41,4216.92,4142.56,4156.92,533,2097,2030,0,18.6144,
122,0,4178.46,4200.51,4168.21,4220.51,4176.41,4166.15,4168.21,4164.62,4239.49,4159.49,4155.9,4217.44,4138.97,4153.85,837,2097,2029,0,18.6525,
123,0,4171.28,4191.79,4162.56,4226.15,4172.31,4166.15,4170.77,4173.85,4234.87,4160.51,4153.33,4217.44,4135.38,4150.26,845,2097,2029,0,18.6907,
124,0,4166.15,4186.15,4161.03,4230.26,4172.31,4167.69,4161.54,4173.33,4236.41,4163.08,4150.77,4220.51,4137.95,4149.23,877,2097,2028,0,18.7288,
125,0,4167.69,4188.21,4159.49,4230.77,4171.28,4162.56,4157.44,4166.67,4236.41,4163.59,4154.36,4221.54,4142.05,4150.77,533,2097,2030,0,18.767,
126,0,4169.74,4186.67,4162.05,4235.9,4165.13,4160,4158.97,4160,4237.44,4162.05,4154.36,4216.92,4139.49,4150.26,837,2095,2030,0,18.8051,
127,0,4172.31,4184.1,4164.1,4235.9,4161.03,4164.62,4162.05,4163.59,4235.38,4166.15,4156.92,4214.87,4143.08,4154.36,845,2093,2029,0,18.8433,
128,0,4173.85,4185.64,4165.13,4229.74,4162.05,4170.26,4169.74,4169.23,4230.77,4167.69,4165.64,4208.72,4151.28,4165.13,877,2093,2029,0,18.8814,
0,1,4173.85,4185.13,4165.13,4229.74,4162.05,4170.26,4169.74,4169.23,4230.77,4167.69,4165.64,4208.72,4151.28,4165.13,852,2093,2029,0,18.8814,
1,1,4173.85,4184.62,4165.13,4229.74,4162.05,4170.26,4169.74,4169.23,4230.77,4167.69,4165.64,4208.72,4151.28,4165.13,827,2093,2029,0,18.9196,
2,1,4173.85,4184.1,4165.13,4229.74,4162.05,4170.26,4169.74,4169.23,4230.77,4167.69,4165.64,4208.72,4151.28,4165.13,802,2093,2029,0,18.9578,
3,1,4173.85,4183.59,4165.13,4229.74,4162.05,4170.26,4169.74,4169.23,4230.77,4167.69,4165.64,4208.72,4151.28,4165.13,777,2093,2029,0,18.9959,
4,1,4173.85,4183.08,4165.13,4229.74,4162.05,4170.26,4169.74,4169.23,4230.77,4167.69,4165.64,4208.72,4151.28,4165.13,752,2093,2029,0,19.0341,
5,1,4173.85,4182.56,4165.13,4229.74,4162.05,4170.26,4169.74,4169.23,4230.77,4167.69,4165.64,4208.72,4151.28,4165.13,727,2093,2029,0,19.0722,
6,1,4173.85,4182.05,4165.13,4229.74,4162.05,4170.26,4169.74,4169.23,4230.77,4167.69,4165.64,4208.72,4151.28,4165.13,702,2093,2029,0,19.1104,
7,1,4173.85,4181.54,4165.13,4229.74,4162.05,4170.26,4169.74,4169.23,4230.77,4167.69,4165.64,4208.72,4151.28,4165.13,677,2093,2029,0,19.1485,
8,1,4173.85,4181.03,4165.13,4229.74,4162.05,4170.26,4169.74,4169.23,4230.77,4167.69,4165.64,4208.72,4151.28,4165.13,652,2093,2029,0,19.1867,
9,1,4173.85,4180.51,4165.13,4229.74,4162.05,4170.26,4169.74,4169.23,4230.77,4167.69,4165.64,4208.72,4151.28,4165.13,627,2093,2029,0,19.2248,
10,1,4173.85,4180,4165.13,4229.74,4162.05,4170.26,4169.74,4169.23,4230.77,4167.69,4165.64,4208.72,4151.28,4165.13,602,2093,2029,0,19.263,
11,1,4173.85,4179.49,4165.13,4229.74,4162.05,4170.26,4169.74,4169.23,4230.77,4167.69,4165.64,4208.72,4151.28,4165.13,577,2093,2029,0,19.3011,
12,1,4173.85,4178.97,4165.13,4229.74,4162.05,4170.26,4169.74,4169.23,4230.77,4167.69,4165.64,4208.72,4151.28,4165.13,552,2093,2029,0,19.3393,
13,1,4173.85,4178.46,4165.13,4229.74,4162.05,4170.26,4169.74,4169.23,4230.77,4167.69,4165.64,4208.72,4151.28,4165.13,527,2093,2029,0,19.3775,
14,1,4173.85,4177.95,4165.13,4229.74,4162.05,4170.26,4169.74,4169.23,4230.77,4167.69,4165.64,4208.72,4151.28,4165.13,502,2093,2029,0,19.4156,
15,1,4173.85,4177.44,4165.13,4229.74,4162.05,4170.26,4169.74,4169.23,4230.77,4167.69,4165.64,4208.72,4151.28,4165.13,477,2093,2029,0,19.4538,
16,1,4173.85,4176.92,4165.13,4229.74,4162.05,4170.26,4169.74,4169.23,4230.77,4167.69,4165.64,4208.72,4151.28,4165.13,452,2093,2029,0,19.4919,
17,1,4173.85,4176.41,4165.13,4229.74,4162.05,4170.26,4169.74,4169.23,4230.77,4167.69,4165.64,4208.72,4151.28,4165.13,427,2093,2029,0,19.5301,
18,1,4173.85,4175.9,4165.13,4229.74,4162.05,4170.26,4169.74,4169.23,4230.77,4167.69,4165.64,4208.72,4151.28,4165.13,402,2093,2029,0,19.5682,
19,1,4173.85,4175.38,4165.13,4229.74,4162.05,4170.26,4169.74,4169.23,4230.77,4167.69,4165.64,4208.72,4151.28,4165.13,377,2093,2029,0,19.6064,
20,1,4173.85,4174.87,4165.13,4229.74,4162.05,4170.26,4169.74,4169.23,4230.77,4167.69,4165.64,4208.72,4151.28,4165.13,352,2093,2029,0,19.6445,
21,1,4173.85,4174.36,4165.13,4229.74,4162.05,4170.26,4169.74,4169.23,4230.77,4167.69,4165.64,4208.72,4151.28,4165.13,327,2093,2029,0,19.6827,
22,1,4173.85,4173.85,4165.13,4229.74,4162.05,4170.26,4169.74,4169.23,4230.77,4167.69,4165.64,4208.72,4151.28,4165.13,302,2093,2029,0,19.7209,
23,1,4173.85,4173.33,4165.13,4229.74,4162.05,4170.26,4169.74,4169.23,4230.77,4167.69,4165.64,4208.72,4151.28,4165.13,277,2093,2029,0,19.759,
24,1,4173.85,4172.82,4165.13,4229.74,4162.05,4170.26,4169.74,4169.23,4230.77,4167.69,4165.64,4208.72,4151.28,4165.13,252,2093,2029,0,19.7972,
25,1,4173.85,4172.31,4165.13,4229.74,4162.05,4170.26,4169.74,4169.23,4230.77,4167.69,4165.64,4208.72,4151.28,4165.13,227,2093,2029,0,19.8353,
26,1,4173.85,4171.79,4165.13,4229.74,4162.05,4170.26,4169.74,4169.23,4230.77,4167.69,4165.64,4208.72,4151.28,4165.13,202,2093,2029,0,19.8735,
27,1,4173.85,4171.28,4165.13,4229.74,4162.05,4170.26,4169.74,4169.23,4230.77,4167.69,4165.64,4208.72,4151.28,4165.13,177,2093,2029,0,19.9116,
28,1,4173.85,4170.77,4165.13,4229.74,4162.05,4170.26,4169.74,4169.23,4230.77,4167.69,4165.64,4208.72,4151.28,4165.13,152,2093,2029,0,19.9498,
29,1,4173.85,4170.26,4165.13,4229.74,4162.05,4170.26,4169.74,4169.23,4230.77,4167.69,4165.64,4208.72,4151.28,4165.13,127,2093,2029,0,19.9879,
30,1,4173.85,4169.74,4165.13,4229.74,4162.05,4170.26,4169.74,4169.23,4230.77,4167.69,4165.64,4208.72,4151.28,4165.13,102,2093,2029,0,20.0261,
31,1,4173.85,4169.23,4165.13,4229.74,4162.05,4170.26,4169.74,4169.23,4230.77,4167.69,4165.64,4208.72,4151.28,4165.13,77,2093,2029,0,20.0643,
32,1,4173.85,4168.72,4165.13,4229.74,4162.05,4170.26,4169.74,4169.23,4230.77,4167.69,4165.64,4208.72,4151.28,4165.13,52,2093,2029,0,20.1024,
33,0,4162.05,4157.44,4163.59,4230.26,4170.77,4168.21,4168.21,4157.44,4240,4162.56,4155.9,4212.82,4148.72,4162.05,0,2072,2036,0,20.1406,
34,0,4164.62,4161.03,4170.26,4230.26,4168.72,4169.74,4169.74,4163.08,4231.28,4164.62,4160,4210.77,4148.72,4164.62,0,2074,2037,0,20.1787,
35,0,4163.59,4161.54,4169.74,4228.21,4174.36,4166.15,4171.79,4174.87,4220,4169.74,4162.56,4212.82,4148.21,4159.49,0,2076,2035,0,20.2169,
36,0,4162.56,4159.49,4165.64,4228.72,4173.85,4168.21,4174.87,4177.44,4220,4175.9,4162.05,4211.79,4152.31,4159.49,0,2079,2038,0,20.255,
37,0,4168.72,4164.1,4174.36,4228.21,4168.72,4174.36,4182.56,4178.46,4221.03,4181.03,4167.69,4205.64,4160,4167.69,0,2083,2037,0,20.2932,
38,0,4171.28,4168.72,4177.95,4223.08,4173.85,4175.38,4190.26,4188.72,4208.21,4186.67,4178.46,4201.54,4168.21,4174.36,0,2083,2037,0,20.3313,
39,0,4169.74,4164.62,4178.46,4223.08,4177.44,4176.41,4184.1,4186.15,4206.15,4184.1,4179.49,4204.1,4167.69,4171.28,0,2088,2039,0,20.3695,
40,0,4171.28,4165.13,4174.87,4226.15,4172.82,4176.92,4174.36,4174.36,4221.54,4177.44,4171.28,4211.28,4161.54,4170.26,0,2090,2037,0,20.4077,
41,0,4166.67,4168.72,4168.21,4227.69,4166.15,4173.33,4175.38,4171.79,4228.21,4171.79,4162.56,4212.82,4158.97,4166.67,0,2089,2035,0,20.4458,
42,0,4164.62,4168.72,4168.72,4228.72,4167.69,4170.77,4177.44,4175.38,4222.56,4165.64,4162.56,4213.85,4162.05,4160,0,2088,2033,0,20.484,
43,0,4167.18,4167.69,4167.69,4226.67,4172.31,4172.31,4176.41,4172.31,4226.15,4163.08,4165.13,4218.46,4157.44,4161.03,0,2079,2028,0,20.5221,
44,0,4167.69,4167.18,4171.28,4226.67,4169.74,4170.77,4178.46,4167.18,4234.87,4157.95,4158.46,4217.95,4146.67,4161.03,0,2074,2025,0,20.5603,
45,0,4171.28,4171.79,4174.36,4226.15,4173.85,4169.74,4180,4171.28,4229.23,4157.95,4160,4213.33,4152.82,4164.1,0,2065,2026,0,20.5984,
46,0,4172.31,4171.79,4171.28,4227.18,4182.05,4171.79,4172.31,4176.41,4225.64,4161.03,4167.18,4208.72,4161.03,4169.74,0,2059,2024,0,20.6366,
47,0,4160,4162.56,4169.23,4233.85,4173.85,4168.72,4167.69,4175.9,4229.23,4159.49,4160.51,4210.77,4148.72,4160.51,0,2047,2024,0,20.6747,
48,0,4154.87,4157.95,4163.59,4238.97,4164.1,4167.18,4171.79,4171.79,4226.15,4162.05,4153.85,4217.95,4142.05,4150.77,0,2043,2026,0,20.7129,
49,0,4165.13,4161.03,4167.18,4237.44,4165.13,4169.74,4169.74,4169.23,4221.03,4168.21,4162.56,4215.9,4157.44,4161.54,0,2037,2026,0,20.7511,
50,0,4174.87,4161.54,4173.33,4230.26,4169.23,4170.77,4167.69,4181.03,4214.36,4177.44,4180,4209.74,4180.51,4184.1,0,2032,2025,0,20.7892,
51,0,4178.97,4156.92,4174.87,4226.67,4171.79,4172.82,4176.92,4194.87,4207.69,4189.23,4193.85,4205.13,4197.95,4198.97,0,2023,2028,0,20.8274,
52,0,4180,4147.69,4181.03,4229.74,4168.21,4175.38,4183.08,4192.31,4204.62,4195.38,4199.49,4201.54,4206.67,4205.13,0,2020,2029,0,20.8655,
53,0,4181.54,4140,4178.46,4236.92,4162.56,4174.87,4181.03,4186.67,4206.15,4196.92,4200,4202.56,4213.33,4208.72,0,2019,2032,0,20.9037,
54,0,4182.05,4139.49,4175.9,4237.95,4162.56,4172.31,4181.03,4190.26,4205.64,4196.41,4200,4203.08,4213.33,4209.74,0,2017,2032,0,20.9418,
55,0,4181.54,4145.64,4176.92,4231.79,4171.79,4170.77,4181.03,4190.77,4201.03,4196.92,4204.1,4205.13,4210.77,4208.72,0,2017,2033,0,20.98,
56,0,4178.46,4148.72,4171.79,4234.87,4169.74,4169.23,4175.9,4186.67,4200,4195.9,4203.59,4205.64,4208.72,4201.03,0,2014,2037,0,21.0181,
57,0,4182.05,4152.82,4176.92,4234.87,4161.03,4168.72,4171.79,4187.18,4203.59,4193.33,4204.1,4200,4208.21,4201.03,0,2016,2037,0,21.0563,
58,0,4188.21,4159.49,4181.03,4228.21,4163.59,4170.26,4175.38,4184.62,4212.31,4191.28,4204.62,4198.46,4207.69,4205.64,0,2017,2038,0,21.0945,
59,0,4180,4155.9,4180,4230.77,4166.67,4170.26,4176.92,4174.36,4220.51,4186.67,4196.41,4199.49,4201.54,4197.95,0,2018,2039,0,21.1326,
60,0,4174.36,4153.33,4183.08,4233.85,4165.64,4167.69,4180.51,4181.03,4214.36,4190.26,4199.49,4195.9,4202.05,4197.44,0,2019,2040,0,21.1708,
61,0,4176.92,4153.33,4180.51,4232.82,4163.08,4173.33,4190.77,4195.38,4203.59,4195.9,4207.69,4190.26,4208.72,4203.08,0,2019,2040,0,21.2089,
65,0,4174.36,4149.74,4182.56,4233.33,4161.03,4173.85,4186.15,4198.46,4203.08,4189.23,4202.05,4196.41,4202.05,4193.33,829,2022,2043,0,21.3655,
66,0,4177.44,4152.82,4175.38,4230.77,4162.56,4180.51,4200.51,4200,4203.59,4192.82,4195.9,4200,4198.46,4193.85,845,2025,2046,0,21.4074,
67,0,4179.49,4158.97,4183.59,4230.77,4168.21,4184.62,4198.46,4195.38,4207.69,4194.36,4193.85,4198.46,4196.41,4195.9,845,2026,2045,0,21.4494,
68,0,4178.97,4158.97,4186.15,4230.77,4167.69,4177.95,4184.1,4178.46,4211.28,4190.26,4195.9,4200.51,4196.92,4192.82,875,2027,2046,0,21.4914,
69,0,4178.46,4156.92,4181.54,4229.74,4165.64,4173.33,4179.49,4174.36,4208.72,4187.69,4195.38,4198.97,4193.85,4192.82,585,2026,2043,0,21.5334,
70,0,4176.41,4160,4181.03,4229.23,4166.67,4174.87,4180,4181.03,4208.21,4185.13,4191.28,4198.97,4192.82,4192.31,788,2027,2046,0,21.5754,
71,0,4173.85,4163.59,4177.44,4226.67,4166.67,4172.82,4175.38,4176.41,4217.95,4178.46,4189.74,4204.1,4193.33,4188.72,812,2028,2046,0,21.6174,
72,0,4178.97,4163.59,4183.59,4224.62,4167.18,4172.82,4177.44,4174.87,4224.1,4177.44,4189.74,4203.59,4191.28,4190.77,786,2030,2045,0,21.6593,
73,0,4186.15,4166.15,4187.18,4220.51,4172.31,4177.44,4185.64,4184.1,4215.9,4186.67,4194.87,4198.46,4197.44,4198.46,866,2028,2044,0,21.7013,
74,0,4185.13,4169.74,4183.59,4217.95,4175.38,4177.44,4185.13,4184.1,4211.28,4192.82,4201.03,4191.79,4207.18,4199.49,834,2029,2043,0,21.7433,
75,0,4183.08,4166.67,4183.08,4224.62,4169.23,4173.33,4181.03,4179.49,4215.9,4189.23,4200,4193.85,4205.64,4196.41,849,2029,2043,0,21.7853,
76,0,4182.05,4162.05,4179.49,4229.23,4167.18,4176.41,4187.18,4183.08,4215.38,4185.64,4194.87,4202.05,4197.44,4194.36,845,2032,2042,0,21.8273,
77,0,4177.44,4158.97,4181.03,4229.23,4171.79,4183.08,4194.36,4185.13,4211.79,4187.18,4190.77,4204.62,4193.85,4190.77,535,2031,2040,0,21.8693,
78,0,4170.77,4159.49,4178.97,4229.23,4177.44,4186.67,4197.44,4187.18,4211.28,4189.23,4191.79,4208.21,4193.85,4187.18,834,2033,2038,0,21.9112,
79,0,4171.79,4161.54,4174.87,4228.21,4178.97,4187.69,4197.44,4194.87,4208.21,4191.28,4192.31,4206.15,4193.33,4184.1,849,2034,2035,0,21.9532,
80,0,4180,4164.62,4180.51,4224.1,4178.97,4184.62,4193.85,4195.38,4205.13,4192.31,4193.85,4199.49,4197.44,4184.62,845,2034,2035,0,21.9952,
81,0,4181.03,4169.74,4181.54,4219.49,4182.05,4181.03,4188.72,4190.26,4205.64,4191.28,4193.85,4201.03,4200,4187.18,535,2038,2037,0,22.0372,
82,0,4181.54,4174.36,4187.18,4220.51,4180.51,4179.49,4182.56,4185.13,4210.77,4185.64,4190.26,4201.03,4194.87,4190.77,834,2037,2034,0,22.0792,
83,0,4188.72,4173.33,4190.77,4222.56,4175.38,4179.49,4183.59,4182.05,4213.85,4181.54,4189.23,4198.46,4189.74,4191.79,849,2037,2034,0,22.1212,
84,0,4182.56,4159.49,4184.62,4227.69,4168.72,4182.05,4187.18,4181.54,4215.9,4177.95,4185.64,4200,4183.08,4184.62,845,2038,2034,0,22.1631,
85,0,4170.26,4151.28,4183.08,4230.26,4163.08,4179.49,4181.54,4176.92,4223.59,4172.82,4178.46,4206.67,4176.41,4178.46,535,2040,2032,0,22.2051,
86,0,4175.9,4164.62,4180,4224.62,4165.13,4174.87,4177.44,4173.85,4223.59,4174.87,4173.85,4209.74,4174.87,4181.54,834,2041,2033,0,22.2471,
87,0,4180.51,4177.95,4180,4219.49,4170.26,4178.97,4181.54,4174.36,4224.62,4175.38,4171.28,4206.15,4168.21,4178.97,849,2043,2039,0,22.2891,
88,0,4176.41,4184.62,4180.51,4216.92,4176.41,4182.05,4183.59,4180,4222.56,4173.85,4173.33,4210.26,4161.03,4171.79,845,2043,2037,0,22.3311,
89,0,4175.38,4190.26,4175.9,4218.46,4180.51,4176.92,4180.51,4184.1,4214.36,4178.46,4171.28,4213.85,4160.51,4166.67,535,2042,2035,0,22.373,
90,0,4172.31,4189.74,4177.44,4220.51,4177.44,4177.44,4178.46,4176.92,4215.9,4180,4163.59,4212.31,4160.51,4158.46,834,2042,2035,0,22.415,
91,0,4165.13,4185.13,4173.85,4220,4175.9,4183.59,4178.46,4174.87,4220.51,4174.87,4161.03,4215.38,4156.92,4153.33,849,2045,2033,0,22.457,
92,0,4158.46,4177.95,4166.15,4226.15,4172.82,4177.95,4176.41,4176.41,4222.56,4166.15,4158.46,4221.03,4147.69,4145.13,845,2046,2034,0,22.499,
93,0,4155.9,4173.85,4164.1,4231.28,4168.72,4168.72,4174.36,4174.87,4225.13,4163.59,4155.9,4225.64,4144.62,4138.46,535,2043,2032,0,22.541,
94,0,4159.49,4177.44,4167.18,4226.15,4171.79,4172.31,4171.28,4169.23,4225.64,4164.1,4156.92,4222.56,4149.23,4142.56,834,2044,2030,0,22.583,
95,0,4169.23,4185.13,4173.85,4222.56,4175.9,4171.28,4166.15,4164.1,4226.67,4160.51,4154.87,4215.38,4146.67,4149.23,849,2045,2030,0,22.6249,
96,0,4171.28,4187.18,4170.26,4223.08,4176.41,4165.64,4166.67,4166.15,4228.72,4161.03,4157.44,4213.33,4149.23,4151.28,845,2045,2031,0,22.6669,
97,0,4166.67,4184.62,4172.31,4222.05,4176.92,4174.36,4169.74,4171.28,4227.69,4166.67,4165.64,4208.72,4160,4158.46,535,2044,2030,0,22.7089,
98,0,4169.23,4183.59,4175.9,4223.08,4177.44,4179.49,4172.31,4174.87,4223.59,4166.67,4164.62,4209.23,4159.49,4165.13,834,2046,2029,0,22.7509,
99,0,4169.74,4180,4166.67,4229.74,4174.36,4173.85,4171.79,4170.26,4230.77,4161.03,4152.82,4217.44,4147.18,4154.36,849,2045,2031,0,22.7929,
100,0,4164.62,4178.46,4168.21,4232.31,4175.9,4171.79,4166.67,4166.15,4236.41,4161.54,4151.28,4218.97,4144.1,4148.21,845,2047,2033,0,22.8349,
101,0,4165.64,4182.05,4169.74,4227.18,4185.13,4176.41,4171.79,4172.31,4230.77,4166.67,4161.03,4215.38,4151.79,4154.87,535,2046,2032,0,22.8768,
102,0,4166.67,4179.49,4169.74,4226.67,4184.62,4180,4185.64,4174.87,4229.23,4166.67,4163.59,4210.26,4155.38,4157.95,834,2048,2033,0,22.9188,
103,0,4170.77,4182.56,4176.41,4222.05,4187.69,4183.08,4193.33,4183.08,4219.49,4178.46,4171.28,4203.59,4165.64,4164.1,849,2046,2034,0,22.9608,
104,0,4181.03,4192.31,4175.9,4213.33,4200,4187.18,4189.23,4199.49,4201.54,4198.97,4186.15,4196.92,4180,4175.38,845,2049,2036,0,23.0028,
105,0,4178.97,4188.21,4176.92,4218.46,4197.95,4181.54,4176.92,4189.23,4206.15,4191.28,4184.1,4202.05,4174.87,4171.28,535,2050,2038,0,23.0448,
106,0,4168.21,4178.97,4174.36,4229.74,4190.77,4169.74,4169.74,4163.59,4225.64,4171.79,4168.21,4212.82,4160,4158.97,834,2051,2038,0,23.0867,
107,0,4169.23,4180,4172.82,4227.69,4193.33,4168.72,4170.77,4160.51,4229.74,4167.69,4162.05,4209.74,4155.38,4157.95,849,2052,2037,0,23.1287,
108,0,4177.44,4186.67,4177.44,4218.46,4198.97,4174.36,4172.31,4168.21,4223.08,4171.28,4165.64,4208.21,4158.97,4163.08,845,2053,2037,0,23.1707,
109,0,4174.36,4187.69,4173.85,4217.95,4198.46,4176.92,4174.87,4164.62,4229.23,4165.64,4163.59,4212.82,4154.36,4158.97,535,2055,2036,0,23.2127,
110,0,4163.59,4179.49,4174.36,4225.13,4198.46,4175.9,4177.44,4157.95,4238.46,4155.9,4155.9,4211.79,4143.59,4147.18,834,2057,2040,0,23.2547,
111,0,4161.54,4174.36,4172.82,4226.67,4201.54,4174.36,4175.9,4160,4232.31,4158.46,4153.85,4213.85,4145.13,4147.69,849,2056,2040,0,23.2967,
112,0,4163.08,4176.41,4169.74,4225.64,4196.92,4170.26,4170.26,4163.08,4227.18,4163.59,4157.44,4217.44,4148.72,4151.28,845,2059,2039,0,23.3386,
113,0,4165.13,4177.95,4175.9,4225.13,4198.97,4172.31,4170.77,4167.69,4228.21,4169.74,4167.18,4214.36,4153.85,4153.85,535,2058,2040,0,23.3806,
114,0,4176.41,4186.15,4178.46,4220.51,4204.1,4176.92,4172.31,4171.79,4220.51,4181.03,4180.51,4205.13,4170.26,4172.31,834,2057,2040,0,23.4226,
115,0,4184.62,4193.33,4183.59,4216.92,4200,4172.82,4168.21,4171.28,4215.38,4185.13,4185.13,4200,4180,4186.67,849,2056,2042,0,23.4646,
116,0,4177.44,4185.13,4183.59,4218.97,4198.97,4166.67,4167.18,4166.67,4223.08,4179.49,4176.41,4206.67,4170.26,4178.46,845,2055,2041,0,23.5066,
117,0,4166.67,4172.82,4171.79,4228.21,4201.54,4171.28,4168.72,4161.54,4228.72,4173.85,4165.64,4211.28,4160.51,4163.59,535,2056,2041,0,23.5486,
118,0,4167.18,4171.28,4169.74,4233.33,4195.38,4176.41,4170.77,4167.18,4226.15,4173.33,4164.62,4212.82,4162.05,4158.46,834,2056,2044,0,23.5905,
119,0,4169.74,4177.95,4172.82,4225.64,4194.36,4176.92,4172.31,4177.44,4220,4178.46,4173.85,4212.82,4167.18,4163.08,849,2058,2044,0,23.6325,
120,0,4168.21,4180.51,4173.33,4222.56,4201.54,4175.38,4168.72,4172.82,4221.54,4182.56,4178.46,4207.69,4172.31,4166.15,845,2056,2042,0,23.6745,
121,0,4168.72,4181.03,4169.23,4228.72,4197.95,4170.26,4168.21,4158.46,4227.18,4178.46,4172.31,4210.77,4171.79,4164.62,535,2057,2046,0,23.7165,
122,0,4175.9,4186.67,4171.79,4227.69,4198.97,4171.79,4177.95,4163.08,4225.13,4176.41,4173.33,4212.31,4167.69,4168.72,834,2056,2046,0,23.7585,
123,0,4186.67,4195.38,4182.56,4214.36,4208.21,4178.97,4182.05,4173.33,4220,4181.54,4180.51,4203.59,4170.26,4176.92,849,2053,2045,0,23.8005,
124,0,4189.23,4196.92,4178.46,4207.69,4213.33,4180,4172.82,4171.28,4218.46,4184.1,4177.95,4202.56,4174.36,4176.41,845,2051,2047,0,23.8424,
125,0,4179.49,4188.72,4173.85,4217.95,4207.18,4172.82,4168.72,4171.28,4221.54,4179.49,4171.79,4206.67,4168.21,4169.74,535,2051,2048,0,23.8844,
126,0,4173.33,4183.59,4174.36,4226.15,4200.51,4167.18,4169.74,4175.38,4224.62,4175.38,4173.85,4209.23,4162.05,4167.18,834,2050,2048,0,23.9264,
127,0,4175.9,4180.51,4171.79,4223.59,4195.9,4169.23,4170.26,4171.79,4225.64,4172.31,4169.74,4209.74,4161.54,4163.59,849,2049,2047,0,23.9684,
128,0,4178.46,4176.92,4176.92,4222.56,4192.31,4171.79,4172.82,4169.74,4223.08,4173.33,4165.64,4207.18,4165.64,4164.62,845,2049,2048,0,24.0104,
0,0,4181.03,4180.51,4177.95,4222.56,4198.97,4173.33,4178.46,4179.49,4217.95,4180,4180,4202.05,4172.82,4174.87,566,2052,2048,0,24.0104,
1,0,4183.59,4180.51,4180,4224.1,4200.51,4171.28,4178.46,4180.51,4219.49,4181.03,4185.64,4197.44,4173.85,4180,829,2053,2048,0,24.0523,
2,0,4184.62,4176.92,4183.59,4225.13,4193.33,4169.74,4173.85,4172.82,4223.59,4178.46,4177.95,4201.54,4171.79,4178.97,845,2053,2045,0,24.0943,
3,0,4183.59,4176.92,4178.97,4224.1,4193.33,4173.85,4180,4172.31,4228.21,4174.87,4174.87,4207.69,4169.23,4174.87,845,2055,2045,0,24.1363,
4,0,4179.49,4176.92,4179.49,4224.62,4194.87,4175.38,4181.54,4165.64,4234.36,4167.18,4171.79,4208.72,4164.62,4170.26,875,2057,2046,0,24.1783,
5,0,4176.92,4178.46,4175.38,4222.56,4190.26,4171.79,4169.74,4155.38,4237.44,4163.59,4171.79,4208.21,4166.67,4170.77,585,2057,2047,0,24.2203,
6,0,4175.9,4180,4173.33,4222.56,4187.69,4167.69,4164.1,4155.9,4240,4163.59,4173.85,4206.15,4167.18,4172.31,789,2057,2046,0,24.2623,
7,0,4175.9,4184.62,4179.49,4223.59,4192.31,4168.21,4172.82,4162.56,4238.46,4166.15,4176.41,4203.08,4166.67,4173.33,812,2059,2045,0,24.3042,
8,0,4172.82,4184.1,4174.87,4226.67,4187.18,4169.74,4172.82,4157.95,4237.95,4163.08,4170.77,4202.56,4165.13,4170.26,786,2058,2045,0,24.3462,
9,0,4164.1,4177.44,4167.69,4231.79,4181.03,4167.69,4160,4144.1,4246.67,4148.72,4152.31,4213.33,4150.77,4155.9,866,2058,2044,0,24.3882,
10,0,4161.54,4178.46,4164.1,4230.77,4187.69,4169.23,4159.49,4146.67,4245.64,4143.59,4147.18,4225.64,4142.05,4146.67,835,2058,2042,0,24.4302,
11,0,4165.13,4178.97,4166.67,4229.74,4186.15,4171.28,4160.51,4152.82,4240,4147.18,4158.46,4221.54,4156.41,4151.79,849,2058,2042,0,24.4722,
12,0,4163.59,4172.31,4166.67,4234.87,4178.46,4168.72,4154.87,4148.21,4244.1,4147.18,4162.56,4217.44,4168.72,4157.44,845,2058,2042,0,24.5142,
13,0,4166.15,4171.28,4164.1,4234.87,4185.13,4167.18,4157.95,4155.38,4235.9,4156.41,4165.13,4215.9,4168.21,4160.51,535,2061,2038,0,24.5561,
14,0,4176.92,4177.44,4175.9,4225.64,4190.26,4170.26,4162.05,4166.67,4221.54,4167.69,4175.38,4207.69,4171.28,4166.67,835,2061,2039,0,24.5981,
15,0,4184.62,4182.05,4178.97,4225.13,4186.67,4170.77,4161.54,4162.56,4223.59,4166.15,4178.97,4207.18,4177.44,4174.87,849,2061,2035,0,24.6401,
16,0,4186.67,4183.08,4176.41,4229.23,4185.13,4171.28,4163.08,4158.97,4228.72,4163.59,4178.46,4206.15,4179.49,4180.51,0,2061,2036,0,24.6821,
17,0,4191.79,4188.72,4186.67,4218.46,4188.72,4175.38,4165.64,4165.13,4223.08,4170.77,4183.59,4199.49,4183.08,4187.18,0,2061,2033,0,24.7241,
18,0,4197.44,4195.9,4189.23,4212.82,4194.87,4176.41,4168.72,4166.67,4220.51,4178.46,4187.18,4197.95,4186.15,4188.21,0,2063,2031,0,24.7661,
19,0,4194.36,4194.87,4185.64,4219.49,4194.87,4173.33,4170.26,4163.59,4223.59,4174.36,4182.05,4201.54,4181.54,4180,0,2062,2031,0,24.808,
20,0,4191.79,4190.77,4180.51,4221.03,4187.69,4171.28,4166.15,4162.56,4224.62,4167.69,4178.46,4208.21,4176.92,4174.87,0,2061,2030,0,24.85,
21,0,4189.74,4188.21,4180,4220.51,4181.03,4169.23,4157.44,4162.56,4231.28,4164.1,4176.41,4209.23,4175.38,4173.85,0,2060,2030,0,24.892,
22,0,4191.79,4189.74,4185.64,4218.46,4182.56,4168.21,4155.38,4164.62,4232.31,4163.08,4175.38,4199.49,4176.92,4177.44,0,2059,2028,0,24.934,
23,0,4193.33,4195.9,4182.05,4213.33,4187.18,4168.72,4157.95,4163.59,4227.18,4165.13,4180,4195.38,4181.54,4183.08,0,2058,2029,0,24.976,
24,0,4185.64,4190.77,4182.05,4219.49,4182.05,4167.69,4151.79,4149.23,4234.87,4161.54,4179.49,4202.56,4177.44,4179.49,0,2055,2029,0,25.0179,
25,0,4178.97,4180.51,4182.05,4227.69,4175.9,4166.67,4148.72,4146.15,4242.56,4157.95,4176.92,4208.72,4174.87,4174.36,0,2054,2026,0,25.0599,
26,0,4174.36,4176.41,4174.36,4227.69,4177.95,4170.77,4157.95,4157.44,4239.49,4160.51,4177.95,4205.64,4177.44,4171.79,0,2052,2027,0,25.1019,
27,0,4171.28,4175.9,4173.33,4227.18,4182.56,4169.23,4163.08,4156.92,4232.82,4165.13,4177.44,4210.26,4175.38,4164.62,0,2047,2027,0,25.1439,
28,0,4166.67,4175.9,4172.31,4232.31,4183.59,4166.15,4156.92,4153.33,4228.21,4165.64,4177.44,4216.41,4174.87,4162.05,0,2049,2026,0,25.1859,
29,0,4167.18,4175.38,4174.87,4234.87,4178.97,4173.85,4156.92,4158.46,4223.59,4164.1,4178.46,4209.74,4174.87,4163.08,0,2047,2027,0,25.2279,
30,0,4174.36,4180,4177.44,4229.74,4179.49,4177.44,4169.23,4173.33,4215.9,4173.33,4184.1,4207.69,4178.46,4166.67,0,2047,2026,0,25.2698,
31,0,4173.33,4176.92,4173.33,4229.74,4182.05,4171.79,4173.33,4178.97,4214.36,4180,4183.59,4211.79,4181.03,4167.18,0,2044,2025,0,25.3118,
32,0,4164.1,4165.13,4171.79,4238.97,4177.44,4169.23,4163.08,4169.74,4220,4168.21,4174.36,4213.33,4176.92,4158.97,0,2042,2023,0,25.3538,
33,0,4161.03,4161.54,4169.23,4240,4172.31,4170.77,4158.46,4164.1,4225.64,4158.97,4173.33,4214.36,4172.31,4153.85,0,2040,2022,0,25.3958,
34,0,4167.69,4163.08,4173.85,4237.44,4168.72,4169.23,4157.44,4163.59,4234.87,4157.44,4177.95,4213.33,4169.74,4157.44,0,2037,2021,0,25.4378,
35,0,4171.79,4162.56,4173.33,4237.44,4169.74,4168.21,4156.92,4160,4239.49,4157.95,4176.41,4214.36,4172.82,4158.46,0,2037,2022,0,25.4798,
124,0,4184.1,4223.08,4169.74,4209.23,4182.05,4167.69,4169.23,4165.64,4244.62,4150.26,4138.97,4224.1,4125.64,4135.38,845,2069,2029,0,29.2162,
125,0,4180,4217.44,4169.23,4213.33,4181.54,4170.26,4164.62,4162.56,4239.49,4154.87,4137.44,4218.97,4125.13,4132.82,534,2068,2026,0,29.2582,
126,0,4172.82,4208.72,4153.85,4220.51,4184.62,4171.79,4163.08,4163.08,4237.44,4159.49,4139.49,4223.08,4125.13,4132.31,835,2069,2026,0,29.3002,
127,0,4164.62,4200.51,4153.33,4224.1,4187.18,4172.31,4166.67,4164.62,4239.49,4155.38,4136.92,4227.18,4122.56,4129.74,849,2070,2020,0,29.3421,
128,0,4160,4198.97,4155.9,4225.64,4184.62,4169.74,4166.67,4159.49,4245.13,4148.72,4130.77,4230.77,4117.44,4126.15,845,2070,2020,0,29.3841,
0,0,4162.05,4204.62,4152.31,4226.67,4180,4167.18,4164.1,4157.44,4248.72,4147.69,4129.23,4228.21,4113.85,4124.62,562,2074,2017,0,29.3841,
1,0,4173.33,4214.36,4163.59,4218.46,4183.59,4167.69,4162.56,4164.62,4244.62,4150.26,4135.38,4220,4117.95,4132.31,829,2074,2015,0,29.4261,
2,0,4184.1,4224.1,4171.28,4206.15,4191.79,4168.21,4166.15,4172.82,4236.41,4155.38,4148.21,4214.87,4133.33,4151.79,843,2072,2013,0,29.4681,
3,0,4185.64,4221.54,4172.31,4206.67,4186.15,4169.74,4168.72,4171.79,4238.97,4155.9,4155.38,4207.18,4143.59,4162.05,845,2073,2015,0,29.5101,
4,0,4184.1,4212.31,4172.31,4211.79,4179.49,4169.23,4173.85,4172.82,4248.21,4150.77,4152.82,4208.72,4140,4158.97,870,2074,2012,0,29.5521,
5,0,4181.03,4203.59,4170.26,4213.85,4183.59,4169.23,4182.56,4173.85,4254.87,4140,4143.59,4215.9,4127.69,4149.74,588,2074,2012,0,29.594,
6,0,4170.26,4194.87,4170.77,4221.54,4181.03,4170.26,4180,4166.15,4260.51,4126.15,4130.26,4218.97,4113.85,4138.97,800,2074,2013,0,29.636,
7,0,4161.03,4193.85,4162.56,4227.69,4178.97,4165.13,4174.36,4159.49,4257.95,4129.74,4127.69,4227.18,4112.82,4133.85,816,2076,2014,0,29.678,
8,0,4156.41,4193.85,4159.49,4230.26,4178.46,4160.51,4169.74,4155.38,4254.36,4140,4132.31,4226.67,4118.46,4132.31,787,2077,2014,0,29.72,
9,0,4158.97,4191.79,4162.56,4228.72,4175.38,4158.97,4165.64,4153.33,4248.21,4143.08,4134.87,4222.56,4123.08,4134.87,866,2076,2013,0,29.762,
10,0,4163.08,4194.87,4160.51,4225.13,4177.44,4157.44,4163.59,4154.87,4240,4151.79,4138.97,4221.03,4128.72,4141.03,835,2076,2015,0,29.804,
11,0,4166.67,4200,4169.74,4224.62,4180.51,4158.97,4162.05,4157.44,4241.54,4160.51,4145.13,4213.85,4134.36,4143.08,849,2077,2015,0,29.8459,
12,0,4178.97,4207.18,4169.23,4220.51,4183.59,4158.97,4161.03,4160,4240,4166.67,4154.87,4211.79,4141.54,4148.72,845,2078,2018,0,29.8879,
13,0,4180.51,4205.64,4161.54,4222.05,4183.08,4155.9,4152.31,4155.9,4238.97,4163.59,4152.31,4215.9,4141.03,4148.21,534,2080,2020,0,29.9299,
14,0,4172.82,4197.95,4162.05,4227.69,4180,4156.41,4149.23,4151.28,4242.56,4155.9,4142.05,4223.59,4137.44,4143.08,835,2080,2022,0,29.9719,
15,0,4176.92,4198.97,4164.62,4223.59,4178.46,4160,4161.03,4161.54,4240.51,4159.49,4145.13,4220.51,4138.46,4147.18,849,2081,2024,0,30.0139,
16,0,4179.49,4197.44,4171.79,4222.56,4174.87,4158.97,4168.21,4167.69,4240.51,4161.03,4149.23,4212.82,4135.9,4151.79,0,2081,2027,0,30.0558,
17,0,4170.77,4192.31,4165.13,4228.72,4174.36,4153.85,4166.67,4161.54,4246.67,4151.79,4145.13,4219.49,4135.9,4151.79,0,2083,2030,0,30.0978,
18,0,4163.08,4188.21,4157.95,4232.82,4172.82,4155.38,4163.59,4153.85,4254.87,4135.9,4136.41,4223.08,4130.26,4145.64,0,2084,2032,0,30.1398,
19,0,4163.08,4186.67,4161.03,4231.28,4172.31,4157.95,4161.54,4151.79,4259.49,4126.67,4130.26,4222.56,4120,4141.03,0,2088,2036,0,30.1818,
20,0,4169.74,4190.77,4158.46,4227.69,4178.97,4157.44,4166.15,4158.97,4255.9,4134.36,4135.9,4221.03,4125.13,4145.13,0,2090,2039,0,30.2238,
21,0,4177.95,4197.95,4167.69,4225.13,4180.51,4160.51,4168.72,4163.08,4249.74,4144.1,4143.08,4212.31,4134.87,4153.33,0,2091,2046,0,30.2658,
22,0,4178.97,4201.03,4171.28,4223.59,4181.54,4161.54,4163.08,4161.03,4245.13,4147.69,4147.69,4213.85,4138.46,4157.95,0,2091,2049,0,30.3077,
23,0,4170.77,4196.92,4163.59,4229.23,4180.51,4163.59,4159.49,4158.46,4247.18,4145.13,4147.69,4220.51,4137.44,4153.33,0,2093,2054,0,30.3497,
27,0,4174.87,4190.77,4169.23,4227.69,4175.38,4163.59,4162.05,4159.49,4249.23,4153.33,4150.77,4216.92,4142.56,4155.38,0,2097,2073,0,30.5095,
28,0,4174.87,4191.28,4165.64,4229.23,4173.33,4160.51,4162.05,4156.92,4250.26,4154.87,4149.23,4216.41,4142.05,4162.05,0,2096,2076,0,30.5433,
29,0,4175.38,4195.9,4171.28,4230.77,4175.38,4154.36,4158.46,4153.85,4247.18,4162.56,4153.33,4209.74,4152.82,4169.23,0,2097,2079,0,30.5771,
30,0,4183.59,4198.46,4178.97,4225.64,4174.36,4153.33,4159.49,4157.95,4242.56,4166.67,4169.23,4202.05,4166.15,4178.97,0,2095,2084,0,30.6109,
31,0,4192.31,4199.49,4180.51,4222.05,4172.31,4160,4166.67,4164.1,4240,4165.13,4177.95,4198.46,4168.21,4184.62,0,2095,2084,0,30.6447,
32,0,4193.85,4202.56,4177.95,4223.59,4177.44,4168.21,4174.87,4167.69,4236.41,4166.67,4173.85,4203.08,4166.15,4181.54,0,2095,2089,0,30.6784,
33,0,4187.18,4202.05,4177.95,4225.64,4181.03,4169.23,4172.31,4166.15,4237.95,4162.05,4163.08,4205.64,4162.05,4173.33,0,2095,2088,0,30.7122,
34,0,4182.05,4196.41,4173.85,4226.15,4177.95,4162.56,4168.21,4162.05,4248.21,4151.79,4153.33,4213.33,4151.79,4167.18,0,2093,2091,0,30.746,
35,0,4179.49,4190.26,4163.59,4228.72,4176.92,4163.59,4171.79,4162.05,4252.82,4147.18,4145.64,4223.59,4143.08,4158.46,0,2094,2093,0,30.7798,
36,0,4173.33,4186.15,4163.59,4231.79,4176.41,4170.26,4170.26,4162.56,4250.26,4146.15,4138.97,4222.05,4139.49,4148.21,0,2093,2095,0,30.8135,
37,0,4172.82,4188.21,4165.13,4232.31,4175.9,4163.59,4161.54,4161.03,4244.1,4149.23,4142.05,4223.59,4143.59,4149.74,0,2092,2095,0,30.8473,
38,0,4174.36,4191.79,4160,4235.9,4174.36,4155.9,4154.36,4160.51,4241.03,4157.44,4148.72,4224.1,4148.72,4153.85,0,2091,2095,0,30.8811,
39,0,4172.82,4191.79,4157.44,4236.92,4170.77,4161.54,4154.36,4161.03,4243.08,4160.51,4146.15,4222.56,4147.18,4150.26,0,2089,2095,0,30.9149,
40,0,4174.87,4193.85,4159.49,4231.28,4172.31,4162.56,4159.49,4162.56,4239.49,4158.46,4150.26,4221.03,4149.23,4155.9,0,2090,2096,0,30.9486,
41,0,4182.05,4195.38,4167.69,4227.69,4175.38,4157.44,4158.46,4160.51,4238.46,4163.08,4166.15,4211.79,4162.56,4170.26,0,2086,2096,0,30.9824,
42,0,4189.23,4194.87,4173.33,4227.69,4177.44,4162.05,4155.38,4160,4236.41,4174.36,4176.41,4205.64,4174.87,4180.51,0,2084,2097,0,31.0162,
43,0,4195.38,4197.95,4174.87,4224.62,4177.44,4167.69,4163.08,4165.13,4229.23,4178.97,4175.9,4203.08,4177.44,4187.18,0,2083,2096,0,31.05,
44,0,4200.51,4202.56,4176.41,4218.97,4176.92,4162.56,4165.13,4165.64,4227.18,4176.92,4180,4200.51,4180.51,4193.85,0,2078,2097,0,31.0838,
45,0,4207.18,4208.72,4180,4212.31,4180.51,4164.62,4163.08,4167.18,4229.23,4181.03,4188.72,4197.44,4189.74,4202.05,0,2077,2097,0,31.1175,
46,0,4207.18,4207.18,4182.05,4215.38,4180.51,4172.31,4173.33,4179.49,4223.59,4180,4185.13,4194.36,4186.67,4206.15,0,2072,2096,0,31.1513,
47,0,4196.92,4194.36,4174.87,4227.69,4176.41,4168.72,4181.54,4187.18,4220.51,4171.79,4174.87,4198.97,4172.31,4197.44,0,2071,2094,0,31.1851,
48,0,4183.59,4182.05,4166.15,4235.38,4172.31,4167.18,4171.28,4171.28,4232.31,4165.13,4166.67,4207.18,4161.54,4183.08,0,2069,2091,0,31.2189,
49,0,4178.46,4178.97,4163.08,4237.44,4169.74,4169.74,4163.08,4156.41,4243.59,4158.46,4155.9,4215.9,4156.41,4172.82,0,2062,2089,0,31.2526,
50,0,4183.08,4186.67,4164.62,4234.36,4171.79,4168.21,4171.28,4166.15,4239.49,4156.92,4153.85,4216.41,4157.95,4172.82,0,2062,2086,0,31.2864,
51,0,4192.31,4197.44,4170.77,4225.13,4180,4170.26,4175.38,4175.38,4234.87,4166.67,4168.21,4204.1,4171.28,4186.15,0,2050,2084,0,31.3202,
52,0,4202.05,4207.69,4174.87,4217.95,4186.15,4169.23,4164.62,4166.15,4236.92,4176.41,4181.54,4200.51,4186.67,4201.54,0,2047,2085,0,31.354,
53,0,4207.18,4211.28,4174.36,4218.97,4184.1,4165.13,4157.95,4158.46,4238.46,4176.92,4179.49,4204.1,4188.72,4201.03,0,2039,2078,0,31.3877,
54,0,4207.18,4207.69,4175.38,4220,4179.49,4166.67,4166.67,4169.23,4231.79,4179.49,4178.97,4202.56,4187.69,4195.38,0,2040,2078,0,31.4215,
55,0,4208.72,4208.21,4178.97,4212.82,4182.05,4170.77,4170.26,4182.05,4222.05,4190.77,4190.77,4197.44,4196.41,4206.15,0,2035,2071,0,31.4553,
56,0,4211.79,4209.23,4183.08,4210.26,4188.21,4168.72,4161.54,4181.03,4220.51,4194.36,4193.85,4188.21,4196.41,4210.77,0,2034,2067,0,31.4891,
57,0,4215.9,4207.18,4186.15,4213.33,4186.67,4165.64,4161.03,4179.49,4223.08,4195.38,4192.82,4187.18,4196.41,4204.62,0,2036,2062,0,31.5228,
58,0,4218.46,4204.62,4184.1,4213.33,4181.54,4167.18,4172.31,4182.56,4219.49,4203.08,4204.62,4189.23,4210.26,4215.38,0,2031,2057,0,31.5566,
59,0,4216.92,4197.95,4185.64,4218.46,4177.44,4168.72,4176.92,4181.54,4218.46,4202.05,4208.72,4184.62,4213.85,4228.21,0,2030,2051,0,31.5904,
60,0,4217.44,4192.31,4187.18,4224.62,4177.95,4168.72,4174.87,4185.64,4222.05,4198.46,4200,4186.67,4208.72,4226.67,0,2032,2048,0,31.6242,
61,0,4215.9,4189.74,4183.08,4224.62,4176.41,4168.21,4171.28,4187.69,4223.59,4196.41,4195.38,4188.21,4208.72,4220,0,2035,2041,0,31.658,
62,0,4210.26,4189.74,4183.08,4223.59,4173.33,4166.15,4170.26,4177.95,4222.05,4191.28,4196.41,4184.62,4208.21,4217.44,0,2032,2036,0,31.6917,
63,0,4209.74,4187.18,4183.08,4222.05,4175.9,4164.62,4172.82,4175.9,4220,4190.26,4197.95,4182.56,4204.62,4216.41,0,2032,2028,0,31.7255,
64,0,4209.23,4180,4185.13,4223.59,4177.95,4164.62,4168.72,4178.46,4223.59,4189.74,4193.33,4184.62,4196.92,4212.82,496,2033,2026,0,31.7593,
65,0,4205.13,4184.62,4186.67,4223.59,4177.95,4166.67,4166.15,4174.36,4228.21,4186.67,4186.67,4190.26,4189.74,4207.69,829,2030,2019,0,31.7931,
66,0,4209.74,4195.9,4188.21,4214.87,4182.56,4171.28,4175.38,4174.87,4226.67,4190.26,4189.23,4185.64,4192.82,4209.74,799,2031,2015,0,31.8268,
67,0,4218.46,4197.44,4191.28,4207.18,4190.26,4171.79,4183.59,4187.18,4222.05,4195.9,4196.41,4181.54,4202.05,4216.41,845,2034,2009,0,31.8606,
68,0,4214.36,4193.85,4184.62,4213.33,4190.77,4169.23,4181.54,4191.79,4220,4193.85,4192.31,4189.74,4199.49,4214.36,870,2033,2007,0,31.8944,
69,0,4210.26,4197.44,4183.08,4220,4187.18,4171.79,4176.41,4178.97,4225.13,4190.26,4185.64,4192.82,4194.87,4209.23,588,2034,2003,0,31.9282,
70,0,4217.44,4204.62,4189.23,4211.79,4189.74,4169.23,4172.82,4169.23,4230.77,4192.31,4191.28,4189.74,4201.54,4210.26,800,2036,2003,0,31.9619,
71,0,4216.92,4200.51,4184.62,4210.26,4189.23,4161.54,4171.28,4173.33,4229.23,4189.23,4191.28,4189.23,4202.05,4207.18,769,2036,1999,0,31.9957,
72,0,4209.74,4193.33,4180.51,4215.9,4181.54,4163.59,4173.33,4173.85,4226.15,4187.18,4186.67,4193.33,4195.9,4205.13,787,2038,1996,0,32.0295,
73,0,4204.1,4195.9,4179.49,4215.38,4178.97,4170.77,4174.87,4171.28,4228.72,4189.74,4185.13,4200,4196.92,4204.1,866,2038,1998,0,32.0633,
74,0,4200,4199.49,4173.33,4219.49,4181.54,4171.79,4173.33,4174.87,4230.26,4186.15,4183.08,4202.05,4197.44,4198.46,835,2039,1999,0,32.097,
75,0,4200.51,4193.33,4171.79,4229.23,4176.92,4167.69,4170.26,4176.92,4225.13,4184.62,4178.97,4201.54,4193.33,4196.41,849,2038,1998,0,32.1308,
76,0,4198.97,4187.69,4174.36,4229.74,4169.23,4169.74,4174.36,4176.92,4221.03,4188.21,4175.9,4200,4192.31,4195.9,845,2041,2002,0,32.1646,
77,0,4200.51,4191.79,4176.41,4225.13,4174.36,4179.49,4178.97,4179.49,4219.49,4192.82,4183.08,4201.03,4196.92,4197.44,534,2040,2005,0,32.1984,
78,0,4203.08,4193.33,4177.95,4225.64,4181.03,4179.49,4175.9,4178.46,4218.46,4192.82,4190.26,4202.05,4199.49,4202.56,835,2040,2005,0,32.2322,
79,0,4193.33,4188.21,4174.87,4230.26,4173.85,4172.31,4174.87,4177.95,4223.59,4187.18,4184.1,4203.59,4196.41,4198.46,849,2041,2006,0,32.2659,
80,0,4188.21,4187.18,4171.79,4229.23,4169.23,4174.87,4178.46,4181.03,4226.15,4187.69,4179.49,4206.15,4193.85,4192.31,845,2040,2009,0,32.2997,
81,0,4194.36,4191.28,4171.79,4224.62,4174.36,4180,4176.41,4181.54,4225.13,4188.21,4182.56,4202.56,4193.33,4195.9,534,2040,2014,0,32.3335,
82,0,4194.36,4194.87,4174.36,4224.1,4175.9,4172.31,4167.69,4174.87,4229.23,4181.03,4180.51,4203.59,4190.26,4197.44,835,2039,2019,0,32.3673,
83,0,4183.59,4189.23,4172.31,4228.21,4173.85,4167.18,4170.77,4174.87,4231.79,4175.9,4172.31,4208.21,4181.03,4184.1,849,2039,2023,0,32.401,
84,0,4178.46,4177.95,4173.33,4234.36,4170.77,4175.9,4180,4176.41,4231.79,4175.9,4168.72,4202.05,4175.38,4172.31,845,2039,2028,0,32.4348,
85,0,4185.64,4188.72,4176.92,4229.23,4171.28,4175.9,4177.44,4171.28,4237.44,4174.87,4173.33,4203.59,4181.03,4174.87,534,2038,2030,0,32.4686,
86,0,4190.77,4209.23,4172.31,4218.46,4178.46,4170.77,4169.74,4168.21,4242.56,4172.31,4173.33,4214.87,4178.97,4174.87,835,2040,2042,0,32.5024,
87,0,4181.54,4213.33,4168.72,4217.95,4181.03,4176.41,4168.21,4167.18,4241.54,4165.13,4158.97,4217.44,4161.03,4160.51,849,2040,2042,0,32.5361,
88,0,4176.41,4216.92,4169.23,4213.85,4180,4179.49,4171.79,4168.72,4236.92,4159.49,4149.23,4217.44,4147.18,4148.72,845,2039,2050,0,32.5699,
89,0,4180.51,4220,4173.33,4209.23,4181.03,4176.41,4171.28,4175.38,4234.87,4162.56,4150.26,4218.46,4144.1,4143.08,534,2038,2053,0,32.6037,
90,0,4177.44,4207.69,4174.36,4217.95,4178.46,4171.79,4167.69,4172.82,4237.95,4163.59,4147.18,4218.97,4140,4138.46,835,2037,2054,0,32.6375,
91,0,4168.21,4196.41,4167.69,4225.64,4169.23,4170.77,4169.23,4161.03,4243.08,4157.44,4144.1,4216.92,4135.38,4138.97,849,2037,2060,0,32.6712,
92,0,4167.69,4198.46,4171.28,4221.54,4166.15,4175.9,4175.9,4160,4245.64,4154.87,4146.67,4211.28,4137.95,4143.59,845,2037,2062,0,32.705,
93,0,4177.44,4203.59,4176.41,4216.41,4173.85,4178.46,4177.95,4171.28,4242.56,4161.54,4152.82,4213.85,4145.13,4150.77,534,2035,2068,0,32.7388,
94,0,4183.08,4204.1,4175.38,4218.97,4174.36,4172.82,4169.74,4169.74,4240.51,4163.59,4151.79,4215.9,4144.1,4152.31,835,2035,2070,0,32.7726,
95,0,4171.28,4193.85,4173.85,4227.18,4165.13,4168.72,4166.67,4165.13,4241.03,4155.9,4144.62,4214.87,4134.87,4144.62,849,2036,2074,0,32.8064,
96,0,4164.62,4191.79,4167.69,4229.23,4161.54,4172.31,4170.77,4172.31,4238.97,4155.9,4146.15,4216.92,4136.92,4143.59,845,2037,2073,0,32.8401,
97,0,4174.87,4201.54,4172.82,4222.05,4166.67,4172.82,4166.15,4170.77,4240.51,4160.51,4149.23,4215.38,4145.64,4148.72,534,2035,2076,0,32.8739,
98,0,4181.54,4206.15,4176.92,4213.85,4173.85,4171.28,4164.1,4164.1,4243.08,4158.46,4147.18,4215.38,4146.67,4148.72,835,2036,2077,0,32.9077,
99,0,4175.9,4203.59,4170.77,4218.46,4171.28,4175.9,4176.41,4165.13,4238.97,4156.41,4145.13,4213.85,4138.46,4148.21,849,2033,2076,0,32.9415,
100,0,4171.28,4203.08,4172.31,4224.62,4168.72,4176.92,4181.03,4168.72,4239.49,4160,4145.13,4213.33,4136.41,4148.21,845,2032,2078,0,32.9752,
101,0,4175.38,4207.18,4168.72,4218.97,4175.38,4174.36,4174.87,4169.23,4241.03,4166.15,4147.18,4220,4147.18,4148.21,534,2034,2076,0,33.009,
102,0,4174.87,4205.64,4166.15,4218.46,4174.36,4172.82,4173.85,4167.69,4238.97,4166.15,4151.28,4217.95,4150.26,4149.74,835,2031,2076,0,33.0428,
103,0,4174.87,4204.62,4169.23,4222.56,4170.77,4171.28,4172.31,4170.77,4234.36,4168.21,4157.44,4213.33,4145.13,4152.82,849,2033,2073,0,33.0766,
104,0,4174.36,4202.56,4164.1,4224.62,4170.77,4168.72,4161.03,4172.31,4234.87,4169.23,4152.82,4214.36,4145.64,4148.72,845,2033,2068,0,33.1103,
105,0,4170.26,4198.46,4162.05,4228.72,4168.21,4166.15,4150.77,4162.56,4241.54,4162.05,4147.69,4218.97,4146.67,4145.13,534,2032,2064,0,33.1441,
106,0,4177.95,4209.23,4169.23,4222.05,4172.31,4168.72,4153.33,4162.05,4239.49,4166.15,4160,4217.95,4152.31,4157.95,835,2032,2064,0,33.1779,
107,0,4192.31,4222.05,4180.51,4209.74,4181.03,4171.79,4156.92,4170.77,4234.36,4174.36,4168.21,4208.21,4161.54,4168.21,849,2032,2060,0,33.2117,
108,0,4196.92,4218.97,4185.64,4209.23,4179.49,4169.74,4155.9,4169.74,4235.9,4175.38,4166.67,4202.56,4166.67,4170.77,845,2030,2059,0,33.2454,
109,0,4196.92,4214.87,4183.08,4210.77,4177.44,4169.74,4163.08,4167.18,4238.46,4176.92,4168.72,4202.56,4166.67,4177.95,534,2032,2058,0,33.2792,
110,0,4199.49,4215.38,4183.59,4208.21,4175.9,4169.74,4164.1,4163.08,4241.54,4173.85,4168.72,4204.62,4161.54,4181.03,835,2033,2054,0,33.313,
111,0,4197.44,4214.36,4180.51,4213.33,4174.36,4168.21,4156.92,4156.92,4243.08,4170.26,4167.69,4205.64,4163.59,4176.92,849,2033,2052,0,33.3468,
112,0,4194.87,4211.79,4183.59,4220.51,4176.92,4169.74,4162.56,4159.49,4241.03,4177.44,4171.28,4198.46,4168.72,4177.44,845,2032,2051,0,33.3806,
113,0,4202.05,4212.82,4186.15,4215.38,4178.97,4170.77,4168.72,4166.67,4235.9,4183.08,4175.38,4198.97,4172.31,4184.1,534,2032,2048,0,33.4143,
114,0,4203.59,4215.38,4182.05,4211.28,4180.51,4168.21,4160.51,4166.15,4236.41,4180,4178.97,4203.59,4175.9,4188.72,835,2032,2046,0,33.4481,
115,0,4197.44,4214.87,4187.18,4212.31,4180.51,4166.67,4155.38,4162.56,4242.05,4178.97,4175.38,4200.51,4174.87,4190.77,849,2032,2043,0,33.4819,
116,0,4196.41,4213.85,4186.15,4211.79,4181.03,4168.72,4164.62,4166.67,4239.49,4177.44,4166.67,4202.56,4162.56,4188.21,845,2032,2038,0,33.5157,
117,0,4196.41,4211.28,4180.51,4213.33,4181.54,4170.77,4167.18,4171.79,4234.87,4173.85,4165.13,4202.56,4161.03,4181.54,534,2031,2036,0,33.5494,
118,0,4192.31,4206.15,4178.46,4217.44,4181.54,4170.26,4165.64,4175.38,4229.74,4181.03,4174.36,4200.51,4181.03,4183.59,835,2032,2032,0,33.5832,
119,0,4185.64,4201.03,4171.28,4221.03,4180,4170.26,4169.74,4178.97,4224.62,4192.31,4180.51,4202.05,4189.74,4192.31,849,2033,2032,0,33.617,
120,0,4184.62,4201.54,4172.82,4223.59,4176.41,4171.79,4169.74,4181.03,4224.62,4192.31,4177.44,4202.05,4186.15,4193.33,845,2033,2026,0,33.6508,
121,0,4187.18,4204.62,4173.85,4223.59,4178.46,4171.28,4171.79,4186.15,4220,4193.85,4177.95,4204.62,4189.74,4188.72,534,2035,2023,0,33.6845,
122,0,4183.08,4198.97,4168.21,4227.18,4177.95,4170.77,4172.31,4184.62,4221.03,4194.87,4178.46,4204.62,4187.18,4183.59,835,2037,2020,0,33.7183,
123,0,4181.03,4193.85,4169.74,4231.28,4175.9,4169.74,4168.72,4173.85,4228.21,4188.72,4174.87,4206.15,4180,4181.03,849,2038,2020,0,33.7521,
124,0,4184.1,4195.9,4173.33,4226.67,4178.46,4169.23,4167.18,4172.31,4232.82,4185.13,4174.36,4204.62,4181.54,4182.05,845,2042,2019,0,33.7859,
125,0,4185.64,4197.44,4173.85,4224.62,4175.9,4170.77,4166.67,4178.97,4232.82,4182.05,4173.33,4198.46,4180.51,4181.54,534,2042,2017,0,33.8196,
126,0,4187.69,4198.97,4176.41,4224.1,4173.85,4171.28,4168.72,4180,4228.21,4182.05,4174.36,4201.03,4178.97,4182.56,835,2046,2016,0,33.8534,
112,0,4176.92,4164.62,4175.38,4233.85,4179.49,4171.79,4182.56,4191.79,4207.69,4194.87,4196.41,4195.38,4215.38,4197.95,845,2015,2069,0,37.7039,
113,0,4181.54,4167.69,4179.49,4231.79,4180.51,4172.31,4180.51,4182.05,4210.77,4198.46,4200,4193.33,4215.9,4205.13,534,2018,2066,0,37.7377,
114,0,4178.46,4171.79,4180.51,4227.69,4182.56,4169.23,4174.36,4172.82,4214.87,4198.97,4198.46,4200,4214.87,4204.62,835,2019,2065,0,37.7715,
115,0,4176.92,4167.69,4173.33,4228.21,4183.59,4175.38,4176.92,4175.38,4209.74,4195.9,4193.85,4198.97,4212.82,4198.97,849,2018,2063,0,37.8053,
116,0,4173.85,4161.54,4165.13,4232.82,4177.95,4181.03,4180.51,4175.9,4210.26,4192.82,4189.23,4201.03,4209.23,4192.82,845,2020,2061,0,37.8391,
117,0,4166.15,4161.54,4166.67,4234.36,4178.46,4175.9,4178.46,4169.74,4218.46,4191.28,4186.67,4208.72,4207.18,4187.69,534,2023,2058,0,37.8728,
118,0,4165.13,4162.05,4173.85,4234.36,4180.51,4175.9,4176.92,4166.67,4222.05,4187.18,4178.97,4213.33,4201.03,4180.51,835,2026,2058,0,37.9066,
119,0,4167.69,4160.51,4168.21,4233.85,4176.41,4180,4175.9,4171.28,4222.05,4183.08,4170.77,4215.9,4193.85,4176.92,849,2026,2053,0,37.9404,
120,0,4166.15,4157.95,4164.1,4240,4171.79,4178.97,4174.87,4173.85,4224.1,4183.08,4171.79,4214.87,4193.33,4181.03,845,2026,2052,0,37.9742,
121,0,4168.21,4161.03,4167.18,4243.08,4176.41,4177.95,4178.97,4177.44,4217.44,4188.21,4177.95,4211.79,4200.51,4189.74,534,2027,2046,0,38.0079,
122,0,4168.72,4163.08,4167.18,4238.46,4183.59,4178.97,4184.1,4186.15,4205.64,4194.87,4180.51,4206.15,4206.67,4196.41,835,2028,2044,0,38.0417,
