title:gizqgder, recorded:31.08.17 17.47.58, timestamp started:2017-08-31T17:41:20.077227-03:00            , sampling:128, subject:iv1, labels:COUNTER INTERPOLATED AF3 F7 F3 FC5 T7 P7 O1 O2 P8 T8 FC6 F4 F8 AF4 RAW_CQ GYROX GYROY MARKER MARKER_HARDWARE SYNC TIME_STAMP_s TIME_STAMP_ms CQ_AF3 CQ_F7 CQ_F3 CQ_FC5 CQ_T7 CQ_P7 CQ_O1 CQ_O2 CQ_P8 CQ_T8 CQ_FC6 CQ_F4 CQ_F8 CQ_AF4 CQ_CMS CQ_DRL, chan:40, samples:2424, units:emotiv
90.0000000000000000000000000, 0.0000000000000000000000000, 4197.4360351562500000000000000, 4185.6411132812500000000000000, 4176.4101562500000000000000000, 4207.6923828125000000000000000, 4201.0253906250000000000000000, 4180.5126953125000000000000000, 4193.3330078125000000000000000, 4192.8203125000000000000000000, 4190.2563476562500000000000000, 4196.9228515625000000000000000, 4207.1791992187500000000000000, 4206.6665039062500000000000000, 4208.2050781250000000000000000, 4210.7690429687500000000000000, 868.0000000000000000000000000, 2095.0000000000000000000000000, 2017.0000000000000000000000000, 0.0000000000000000000000000, 0.0000000000000000000000000, 0.0000000000000000000000000, 399.0000000000000000000000000, 287.1794738769531250000000000, 4.0000000000000000000000000, 4.0000000000000000000000000, 4.0000000000000000000000000, 4.0000000000000000000000000, 4.0000000000000000000000000, 4.0000000000000000000000000, 4.0000000000000000000000000, 4.0000000000000000000000000, 4.0000000000000000000000000, 4.0000000000000000000000000, 4.0000000000000000000000000, 4.0000000000000000000000000, 4.0000000000000000000000000, 4.0000000000000000000000000, 4.0000000000000000000000000, 4.0000000000000000000000000
91.0000000000000000000000000, 0.0000000000000000000000000, 4190.2563476562500000000000000, 4180.0000000000000000000000000, 4181.0253906250000000000000000, 4214.8715820312500000000000000, 4188.2050781250000000000000000, 4175.8974609375000000000000000, 4189.7436523437500000000000000, 4192.8203125000000000000000000, 4191.2817382812500000000000000, 4192.3076171875000000000000000, 4203.5898437500000000000000000, 4204.6152343750000000000000000, 4204.1025390625000000000000000, 4207.1791992187500000000000000, 865.0000000000000000000000000, 2088.0000000000000000000000000, 2016.0000000000000000000000000, 0.0000000000000000000000000, 0.0000000000000000000000000, 0.0000000000000000000000000, 399.0000000000000000000000000, 294.8717956542968750000000000, 4.0000000000000000000000000, 4.0000000000000000000000000, 4.0000000000000000000000000, 4.0000000000000000000000000, 4.0000000000000000000000000, 4.0000000000000000000000000, 4.0000000000000000000000000, 4.0000000000000000000000000, 4.0000000000000000000000000, 4.0000000000000000000000000, 4.0000000000000000000000000, 4.0000000000000000000000000, 4.0000000000000000000000000, 4.0000000000000000000000000, 4.0000000000000000000000000, 4.0000000000000000000000000
92.0000000000000000000000000, 0.0000000000000000000000000, 4194.8715820312500000000000000, 4184.6152343750000000000000000, 4192.3076171875000000000000000, 4210.7690429687500000000000000, 4194.3588867187500000000000000, 4180.0000000000000000000000000, 4194.8715820312500000000000000, 4196.4101562500000000000000000, 4182.0512695312500000000000000, 4200.0000000000000000000000000, 4210.2563476562500000000000000, 4193.8461914062500000000000000, 4213.3330078125000000000000000, 4220.5126953125000000000000000, 862.0000000000000000000000000, 2076.0000000000000000000000000, 2018.0000000000000000000000000, 0.0000000000000000000000000, 0.0000000000000000000000000, 0.0000000000000000000000000, 399.0000000000000000000000000, 303.0769042968750000000000000, 4.0000000000000000000000000, 4.0000000000000000000000000, 4.0000000000000000000000000, 4.0000000000000000000000000, 4.0000000000000000000000000, 4.0000000000000000000000000, 4.0000000000000000000000000, 4.0000000000000000000000000, 4.0000000000000000000000000, 4.0000000000000000000000000, 4.0000000000000000000000000, 4.0000000000000000000000000, 4.0000000000000000000000000, 4.0000000000000000000000000, 4.0000000000000000000000000, 4.0000000000000000000000000
93.0000000000000000000000000, 0.0000000000000000000000000, 4190.7690429687500000000000000, 4184.6152343750000000000000000, 4195.8974609375000000000000000, 4216.9228515625000000000000000, 4206.1538085937500000000000000, 4187.1791992187500000000000000, 4199.4873046875000000000000000, 4195.8974609375000000000000000, 4180.0000000000000000000000000, 4197.4360351562500000000000000, 4212.3076171875000000000000000, 4193.8461914062500000000000000, 4211.7949218750000000000000000, 4220.5126953125000000000000000, 814.0000000000000000000000000, 2073.0000000000000000000000000, 2019.0000000000000000000000000, 0.0000000000000000000000000, 0.0000000000000000000000000, 0.0000000000000000000000000, 399.0000000000000000000000000, 310.7692260742187500000000000, 4.0000000000000000000000000, 4.0000000000000000000000000, 4.0000000000000000000000000, 4.0000000000000000000000000, 4.0000000000000000000000000, 4.0000000000000000000000000, 4.0000000000000000000000000, 4.0000000000000000000000000, 4.0000000000000000000000000, 4.0000000000000000000000000, 4.0000000000000000000000000, 4.0000000000000000000000000, 4.0000000000000000000000000, 4.0000000000000000000000000, 4.0000000000000000000000000, 4.0000000000000000000000000
94.0000000000000000000000000, 0.0000000000000000000000000, 4180.5126953125000000000000000, 4181.0253906250000000000000000, 4188.2050781250000000000000000, 4223.5898437500000000000000000, 4204.1025390625000000000000000, 4182.0512695312500000000000000, 4192.3076171875000000000000000, 4196.9228515625000000000000000, 4183.5898437500000000000000000, 4189.2304687500000000000000000, 4206.6665039062500000000000000, 4197.9487304687500000000000000, 4206.1538085937500000000000000, 4212.3076171875000000000000000, 868.0000000000000000000000000, 2067.0000000000000000000000000, 2019.0000000000000000000000000, 0.0000000000000000000000000, 0.0000000000000000000000000, 0.0000000000000000000000000, 399.0000000000000000000000000, 318.9743652343750000000000000, 4.0000000000000000000000000, 4.0000000000000000000000000, 4.0000000000000000000000000, 4.0000000000000000000000000, 4.0000000000000000000000000, 4.0000000000000000000000000, 4.0000000000000000000000000, 4.0000000000000000000000000, 4.0000000000000000000000000, 4.0000000000000000000000000, 4.0000000000000000000000000, 4.0000000000000000000000000, 4.0000000000000000000000000, 4.0000000000000000000000000, 4.0000000000000000000000000, 4.0000000000000000000000000
95.0000000000000000000000000, 0.0000000000000000000000000, 4182.5639648437500000000000000, 4185.6411132812500000000000000, 4182.5639648437500000000000000, 4212.8203125000000000000000000, 4203.0766601562500000000000000, 4180.0000000000000000000000000, 4187.1791992187500000000000000, 4202.0512695312500000000000000, 4179.4873046875000000000000000, 4197.9487304687500000000000000, 4210.7690429687500000000000000, 4197.4360351562500000000000000, 4213.8461914062500000000000000, 4215.3842773437500000000000000, 865.0000000000000000000000000, 2064.0000000000000000000000000, 2018.0000000000000000000000000, 0.0000000000000000000000000, 0.0000000000000000000000000, 0.0000000000000000000000000, 399.0000000000000000000000000, 326.6666564941406250000000000, 4.0000000000000000000000000, 4.0000000000000000000000000, 4.0000000000000000000000000, 4.0000000000000000000000000, 4.0000000000000000000000000, 4.0000000000000000000000000, 4.0000000000000000000000000, 4.0000000000000000000000000, 4.0000000000000000000000000, 4.0000000000000000000000000, 4.0000000000000000000000000, 4.0000000000000000000000000, 4.0000000000000000000000000, 4.0000000000000000000000000, 4.0000000000000000000000000, 4.0000000000000000000000000
96.0000000000000000000000000, 0.0000000000000000000000000, 4194.8715820312500000000000000, 4192.3076171875000000000000000, 4194.3588867187500000000000000, 4200.5126953125000000000000000, 4209.7436523437500000000000000, 4188.7177734375000000000000000, 4189.7436523437500000000000000, 4202.5639648437500000000000000, 4173.8461914062500000000000000, 4209.7436523437500000000000000, 4213.8461914062500000000000000, 4194.3588867187500000000000000, 4222.0512695312500000000000000, 4220.5126953125000000000000000, 862.0000000000000000000000000, 2057.0000000000000000000000000, 2011.0000000000000000000000000, 0.0000000000000000000000000, 0.0000000000000000000000000, 0.0000000000000000000000000, 399.0000000000000000000000000, 334.8717956542968750000000000, 4.0000000000000000000000000, 4.0000000000000000000000000, 4.0000000000000000000000000, 4.0000000000000000000000000, 4.0000000000000000000000000, 4.0000000000000000000000000, 4.0000000000000000000000000, 4.0000000000000000000000000, 4.0000000000000000000000000, 4.0000000000000000000000000, 4.0000000000000000000000000, 4.0000000000000000000000000, 4.0000000000000000000000000, 4.0000000000000000000000000, 4.0000000000000000000000000, 4.0000000000000000000000000
97.0000000000000000000000000, 0.0000000000000000000000000, 4190.7690429687500000000000000, 4189.7436523437500000000000000, 4189.2304687500000000000000000, 4209.2304687500000000000000000, 4212.8203125000000000000000000, 4190.2563476562500000000000000, 4187.1791992187500000000000000, 4202.5639648437500000000000000, 4171.7949218750000000000000000, 4209.7436523437500000000000000, 4207.1791992187500000000000000, 4201.0253906250000000000000000, 4220.0000000000000000000000000, 4213.3330078125000000000000000, 814.0000000000000000000000000, 2054.0000000000000000000000000, 2011.0000000000000000000000000, 0.0000000000000000000000000, 0.0000000000000000000000000, 0.0000000000000000000000000, 399.0000000000000000000000000, 342.5640869140625000000000000, 4.0000000000000000000000000, 4.0000000000000000000000000, 4.0000000000000000000000000, 4.0000000000000000000000000, 4.0000000000000000000000000, 4.0000000000000000000000000, 4.0000000000000000000000000, 4.0000000000000000000000000, 4.0000000000000000000000000, 4.0000000000000000000000000, 4.0000000000000000000000000, 4.0000000000000000000000000, 4.0000000000000000000000000, 4.0000000000000000000000000, 4.0000000000000000000000000, 4.0000000000000000000000000
98.0000000000000000000000000, 0.0000000000000000000000000, 4182.5639648437500000000000000, 4184.1025390625000000000000000, 4183.0766601562500000000000000, 4222.0512695312500000000000000, 4206.6665039062500000000000000, 4187.1791992187500000000000000, 4191.7949218750000000000000000, 4196.9228515625000000000000000, 4178.4614257812500000000000000, 4201.5385742187500000000000000, 4200.5126953125000000000000000, 4207.1791992187500000000000000, 4212.8203125000000000000000000, 4207.6923828125000000000000000, 868.0000000000000000000000000, 2051.0000000000000000000000000, 2009.0000000000000000000000000, 0.0000000000000000000000000, 0.0000000000000000000000000, 0.0000000000000000000000000, 399.0000000000000000000000000, 350.7692260742187500000000000, 4.0000000000000000000000000, 4.0000000000000000000000000, 4.0000000000000000000000000, 4.0000000000000000000000000, 4.0000000000000000000000000, 4.0000000000000000000000000, 4.0000000000000000000000000, 4.0000000000000000000000000, 4.0000000000000000000000000, 4.0000000000000000000000000, 4.0000000000000000000000000, 4.0000000000000000000000000, 4.0000000000000000000000000, 4.0000000000000000000000000, 4.0000000000000000000000000, 4.0000000000000000000000000
99.0000000000000000000000000, 0.0000000000000000000000000, 4187.1791992187500000000000000, 4184.6152343750000000000000000, 4186.1538085937500000000000000, 4220.5126953125000000000000000, 4203.0766601562500000000000000, 4185.1279296875000000000000000, 4200.0000000000000000000000000, 4190.2563476562500000000000000, 4189.2304687500000000000000000, 4196.9228515625000000000000000, 4198.9741210937500000000000000, 4208.7177734375000000000000000, 4210.2563476562500000000000000, 4208.7177734375000000000000000, 865.0000000000000000000000000, 2046.0000000000000000000000000, 2007.0000000000000000000000000, 0.0000000000000000000000000, 0.0000000000000000000000000, 0.0000000000000000000000000, 399.0000000000000000000000000, 358.4615173339843750000000000, 4.0000000000000000000000000, 4.0000000000000000000000000, 4.0000000000000000000000000, 4.0000000000000000000000000, 4.0000000000000000000000000, 4.0000000000000000000000000, 4.0000000000000000000000000, 4.0000000000000000000000000, 4.0000000000000000000000000, 4.0000000000000000000000000, 4.0000000000000000000000000, 4.0000000000000000000000000, 4.0000000000000000000000000, 4.0000000000000000000000000, 4.0000000000000000000000000, 4.0000000000000000000000000
100.0000000000000000000000000, 0.0000000000000000000000000, 4183.0766601562500000000000000, 4182.5639648437500000000000000, 4181.0253906250000000000000000, 4222.0512695312500000000000000, 4202.0512695312500000000000000, 4184.6152343750000000000000000, 4201.5385742187500000000000000, 4186.1538085937500000000000000, 4194.8715820312500000000000000, 4193.8461914062500000000000000, 4191.7949218750000000000000000, 4214.8715820312500000000000000, 4205.1279296875000000000000000, 4203.5898437500000000000000000, 862.0000000000000000000000000, 2045.0000000000000000000000000, 2006.0000000000000000000000000, 0.0000000000000000000000000, 0.0000000000000000000000000, 0.0000000000000000000000000, 399.0000000000000000000000000, 366.6666564941406250000000000, 4.0000000000000000000000000, 4.0000000000000000000000000, 4.0000000000000000000000000, 4.0000000000000000000000000, 4.0000000000000000000000000, 4.0000000000000000000000000, 4.0000000000000000000000000, 4.0000000000000000000000000, 4.0000000000000000000000000, 4.0000000000000000000000000, 4.0000000000000000000000000, 4.0000000000000000000000000, 4.0000000000000000000000000, 4.0000000000000000000000000, 4.0000000000000000000000000, 4.0000000000000000000000000
101.0000000000000000000000000, 0.0000000000000000000000000, 4178.4614257812500000000000000, 4172.8203125000000000000000000, 4182.5639648437500000000000000, 4225.1279296875000000000000000, 4200.5126953125000000000000000, 4184.6152343750000000000000000, 4201.5385742187500000000000000, 4186.1538085937500000000000000, 4189.7436523437500000000000000, 4191.7949218750000000000000000, 4186.6665039062500000000000000, 4211.7949218750000000000000000, 4201.5385742187500000000000000, 4203.0766601562500000000000000, 814.0000000000000000000000000, 2039.0000000000000000000000000, 2002.0000000000000000000000000, 0.0000000000000000000000000, 0.0000000000000000000000000, 0.0000000000000000000000000, 399.0000000000000000000000000, 374.3589782714843750000000000, 4.0000000000000000000000000, 4.0000000000000000000000000, 4.0000000000000000000000000, 4.0000000000000000000000000, 4.0000000000000000000000000, 4.0000000000000000000000000, 4.0000000000000000000000000, 4.0000000000000000000000000, 4.0000000000000000000000000, 4.0000000000000000000000000, 4.0000000000000000000000000, 4.0000000000000000000000000, 4.0000000000000000000000000, 4.0000000000000000000000000, 4.0000000000000000000000000, 4.0000000000000000000000000
102.0000000000000000000000000, 0.0000000000000000000000000, 4184.6152343750000000000000000, 4171.2817382812500000000000000, 4178.4614257812500000000000000, 4222.5639648437500000000000000, 4203.0766601562500000000000000, 4183.0766601562500000000000000, 4197.9487304687500000000000000, 4193.3330078125000000000000000, 4180.5126953125000000000000000, 4193.8461914062500000000000000, 4192.3076171875000000000000000, 4205.6411132812500000000000000, 4206.1538085937500000000000000, 4207.6923828125000000000000000, 868.0000000000000000000000000, 2039.0000000000000000000000000, 1998.0000000000000000000000000, 0.0000000000000000000000000, 0.0000000000000000000000000, 0.0000000000000000000000000, 399.0000000000000000000000000, 382.0512695312500000000000000, 4.0000000000000000000000000, 4.0000000000000000000000000, 4.0000000000000000000000000, 4.0000000000000000000000000, 4.0000000000000000000000000, 4.0000000000000000000000000, 4.0000000000000000000000000, 4.0000000000000000000000000, 4.0000000000000000000000000, 4.0000000000000000000000000, 4.0000000000000000000000000, 4.0000000000000000000000000, 4.0000000000000000000000000, 4.0000000000000000000000000, 4.0000000000000000000000000, 4.0000000000000000000000000
103.0000000000000000000000000, 0.0000000000000000000000000, 4187.6923828125000000000000000, 4178.9741210937500000000000000, 4179.4873046875000000000000000, 4219.4873046875000000000000000, 4201.5385742187500000000000000, 4185.6411132812500000000000000, 4201.0253906250000000000000000, 4198.4614257812500000000000000, 4181.0253906250000000000000000, 4196.4101562500000000000000000, 4196.4101562500000000000000000, 4202.0512695312500000000000000, 4207.1791992187500000000000000, 4207.1791992187500000000000000, 865.0000000000000000000000000, 2037.0000000000000000000000000, 1997.0000000000000000000000000, 0.0000000000000000000000000, 0.0000000000000000000000000, 0.0000000000000000000000000, 399.0000000000000000000000000, 389.7435913085937500000000000, 4.0000000000000000000000000, 4.0000000000000000000000000, 4.0000000000000000000000000, 4.0000000000000000000000000, 4.0000000000000000000000000, 4.0000000000000000000000000, 4.0000000000000000000000000, 4.0000000000000000000000000, 4.0000000000000000000000000, 4.0000000000000000000000000, 4.0000000000000000000000000, 4.0000000000000000000000000, 4.0000000000000000000000000, 4.0000000000000000000000000, 4.0000000000000000000000000, 4.0000000000000000000000000
104.0000000000000000000000000, 0.0000000000000000000000000, 4188.7177734375000000000000000, 4187.6923828125000000000000000, 4188.2050781250000000000000000, 4214.8715820312500000000000000, 4198.4614257812500000000000000, 4189.2304687500000000000000000, 4203.0766601562500000000000000, 4201.0253906250000000000000000, 4181.5385742187500000000000000, 4204.1025390625000000000000000, 4201.5385742187500000000000000, 4195.8974609375000000000000000, 4210.7690429687500000000000000, 4210.7690429687500000000000000, 862.0000000000000000000000000, 2034.0000000000000000000000000, 1993.0000000000000000000000000, 0.0000000000000000000000000, 0.0000000000000000000000000, 0.0000000000000000000000000, 399.0000000000000000000000000, 397.9486999511718750000000000, 4.0000000000000000000000000, 4.0000000000000000000000000, 4.0000000000000000000000000, 4.0000000000000000000000000, 4.0000000000000000000000000, 4.0000000000000000000000000, 4.0000000000000000000000000, 4.0000000000000000000000000, 4.0000000000000000000000000, 4.0000000000000000000000000, 4.0000000000000000000000000, 4.0000000000000000000000000, 4.0000000000000000000000000, 4.0000000000000000000000000, 4.0000000000000000000000000, 4.0000000000000000000000000
105.0000000000000000000000000, 0.0000000000000000000000000, 4188.7177734375000000000000000, 4187.6923828125000000000000000, 4184.1025390625000000000000000, 4211.7949218750000000000000000, 4199.4873046875000000000000000, 4184.6152343750000000000000000, 4197.9487304687500000000000000, 4202.0512695312500000000000000, 4176.4101562500000000000000000, 4206.6665039062500000000000000, 4204.6152343750000000000000000, 4198.4614257812500000000000000, 4215.3842773437500000000000000, 4213.8461914062500000000000000, 814.0000000000000000000000000, 2032.0000000000000000000000000, 1989.0000000000000000000000000, 0.0000000000000000000000000, 0.0000000000000000000000000, 0.0000000000000000000000000, 399.0000000000000000000000000, 405.6410217285156250000000000, 4.0000000000000000000000000, 4.0000000000000000000000000, 4.0000000000000000000000000, 4.0000000000000000000000000, 4.0000000000000000000000000, 4.0000000000000000000000000, 4.0000000000000000000000000, 4.0000000000000000000000000, 4.0000000000000000000000000, 4.0000000000000000000000000, 4.0000000000000000000000000, 4.0000000000000000000000000, 4.0000000000000000000000000, 4.0000000000000000000000000, 4.0000000000000000000000000, 4.0000000000000000000000000
106.0000000000000000000000000, 0.0000000000000000000000000, 4190.7690429687500000000000000, 4178.4614257812500000000000000, 4191.7949218750000000000000000, 4217.4360351562500000000000000, 4192.8203125000000000000000000, 4182.0512695312500000000000000, 4195.3842773437500000000000000, 4194.8715820312500000000000000, 4184.6152343750000000000000000, 4194.3588867187500000000000000, 4196.9228515625000000000000000, 4197.9487304687500000000000000, 4208.7177734375000000000000000, 4211.7949218750000000000000000, 868.0000000000000000000000000, 2032.0000000000000000000000000, 1991.0000000000000000000000000, 0.0000000000000000000000000, 0.0000000000000000000000000, 0.0000000000000000000000000, 399.0000000000000000000000000, 413.3333129882812500000000000, 4.0000000000000000000000000, 4.0000000000000000000000000, 4.0000000000000000000000000, 4.0000000000000000000000000, 4.0000000000000000000000000, 4.0000000000000000000000000, 4.0000000000000000000000000, 4.0000000000000000000000000, 4.0000000000000000000000000, 4.0000000000000000000000000, 4.0000000000000000000000000, 4.0000000000000000000000000, 4.0000000000000000000000000, 4.0000000000000000000000000, 4.0000000000000000000000000, 4.0000000000000000000000000
107.0000000000000000000000000, 0.0000000000000000000000000, 4184.1025390625000000000000000, 4173.3330078125000000000000000, 4178.9741210937500000000000000, 4226.6665039062500000000000000, 4185.6411132812500000000000000, 4181.5385742187500000000000000, 4188.7177734375000000000000000, 4183.0766601562500000000000000, 4194.8715820312500000000000000, 4188.2050781250000000000000000, 4189.7436523437500000000000000, 4203.5898437500000000000000000, 4202.5639648437500000000000000, 4206.1538085937500000000000000, 865.0000000000000000000000000, 2031.0000000000000000000000000, 1992.0000000000000000000000000, 0.0000000000000000000000000, 0.0000000000000000000000000, 0.0000000000000000000000000, 399.0000000000000000000000000, 421.0256347656250000000000000, 4.0000000000000000000000000, 4.0000000000000000000000000, 4.0000000000000000000000000, 4.0000000000000000000000000, 4.0000000000000000000000000, 4.0000000000000000000000000, 4.0000000000000000000000000, 4.0000000000000000000000000, 4.0000000000000000000000000, 4.0000000000000000000000000, 4.0000000000000000000000000, 4.0000000000000000000000000, 4.0000000000000000000000000, 4.0000000000000000000000000, 4.0000000000000000000000000, 4.0000000000000000000000000
108.0000000000000000000000000, 0.0000000000000000000000000, 4178.9741210937500000000000000, 4180.0000000000000000000000000, 4162.0512695312500000000000000, 4222.5639648437500000000000000, 4191.2817382812500000000000000, 4177.9487304687500000000000000, 4186.6665039062500000000000000, 4181.5385742187500000000000000, 4193.8461914062500000000000000, 4194.3588867187500000000000000, 4193.8461914062500000000000000, 4211.7949218750000000000000000, 4207.1791992187500000000000000, 4203.5898437500000000000000000, 862.0000000000000000000000000, 2033.0000000000000000000000000, 1991.0000000000000000000000000, 0.0000000000000000000000000, 0.0000000000000000000000000, 0.0000000000000000000000000, 399.0000000000000000000000000, 429.2307739257812500000000000, 4.0000000000000000000000000, 4.0000000000000000000000000, 4.0000000000000000000000000, 4.0000000000000000000000000, 4.0000000000000000000000000, 4.0000000000000000000000000, 4.0000000000000000000000000, 4.0000000000000000000000000, 4.0000000000000000000000000, 4.0000000000000000000000000, 4.0000000000000000000000000, 4.0000000000000000000000000, 4.0000000000000000000000000, 4.0000000000000000000000000, 4.0000000000000000000000000, 4.0000000000000000000000000
109.0000000000000000000000000, 0.0000000000000000000000000, 4196.9228515625000000000000000, 4186.1538085937500000000000000, 4190.7690429687500000000000000, 4210.7690429687500000000000000, 4197.9487304687500000000000000, 4180.5126953125000000000000000, 4190.7690429687500000000000000, 4185.1279296875000000000000000, 4192.3076171875000000000000000, 4193.8461914062500000000000000, 4202.5639648437500000000000000, 4200.0000000000000000000000000, 4209.2304687500000000000000000, 4209.7436523437500000000000000, 814.0000000000000000000000000, 2035.0000000000000000000000000, 1989.0000000000000000000000000, 0.0000000000000000000000000, 0.0000000000000000000000000, 0.0000000000000000000000000, 399.0000000000000000000000000, 436.9230651855468750000000000, 4.0000000000000000000000000, 4.0000000000000000000000000, 4.0000000000000000000000000, 4.0000000000000000000000000, 4.0000000000000000000000000, 4.0000000000000000000000000, 4.0000000000000000000000000, 4.0000000000000000000000000, 4.0000000000000000000000000, 4.0000000000000000000000000, 4.0000000000000000000000000, 4.0000000000000000000000000, 4.0000000000000000000000000, 4.0000000000000000000000000, 4.0000000000000000000000000, 4.0000000000000000000000000
110.0000000000000000000000000, 0.0000000000000000000000000, 4196.9228515625000000000000000, 4182.0512695312500000000000000, 4191.2817382812500000000000000, 4214.3588867187500000000000000, 4194.8715820312500000000000000, 4181.0253906250000000000000000, 4183.0766601562500000000000000, 4183.5898437500000000000000000, 4190.7690429687500000000000000, 4192.3076171875000000000000000, 4198.9741210937500000000000000, 4200.0000000000000000000000000, 4208.2050781250000000000000000, 4209.7436523437500000000000000, 868.0000000000000000000000000, 2034.0000000000000000000000000, 1991.0000000000000000000000000, 0.0000000000000000000000000, 0.0000000000000000000000000, 0.0000000000000000000000000, 399.0000000000000000000000000, 445.1282043457031250000000000, 4.0000000000000000000000000, 4.0000000000000000000000000, 4.0000000000000000000000000, 4.0000000000000000000000000, 4.0000000000000000000000000, 4.0000000000000000000000000, 4.0000000000000000000000000, 4.0000000000000000000000000, 4.0000000000000000000000000, 4.0000000000000000000000000, 4.0000000000000000000000000, 4.0000000000000000000000000, 4.0000000000000000000000000, 4.0000000000000000000000000, 4.0000000000000000000000000, 4.0000000000000000000000000
111.0000000000000000000000000, 0.0000000000000000000000000, 4187.6923828125000000000000000, 4183.5898437500000000000000000, 4173.3330078125000000000000000, 4216.4101562500000000000000000, 4193.8461914062500000000000000, 4184.1025390625000000000000000, 4185.6411132812500000000000000, 4191.2817382812500000000000000, 4181.0253906250000000000000000, 4203.5898437500000000000000000, 4197.4360351562500000000000000, 4205.1279296875000000000000000, 4212.8203125000000000000000000, 4209.2304687500000000000000000, 865.0000000000000000000000000, 2037.0000000000000000000000000, 1994.0000000000000000000000000, 0.0000000000000000000000000, 0.0000000000000000000000000, 0.0000000000000000000000000, 399.0000000000000000000000000, 452.8204956054687500000000000, 4.0000000000000000000000000, 4.0000000000000000000000000, 4.0000000000000000000000000, 4.0000000000000000000000000, 4.0000000000000000000000000, 4.0000000000000000000000000, 4.0000000000000000000000000, 4.0000000000000000000000000, 4.0000000000000000000000000, 4.0000000000000000000000000, 4.0000000000000000000000000, 4.0000000000000000000000000, 4.0000000000000000000000000, 4.0000000000000000000000000, 4.0000000000000000000000000, 4.0000000000000000000000000
112.0000000000000000000000000, 0.0000000000000000000000000, 4199.4873046875000000000000000, 4191.2817382812500000000000000, 4184.6152343750000000000000000, 4206.6665039062500000000000000, 4200.5126953125000000000000000, 4190.7690429687500000000000000, 4195.8974609375000000000000000, 4198.9741210937500000000000000, 4177.4360351562500000000000000, 4210.7690429687500000000000000, 4206.1538085937500000000000000, 4200.0000000000000000000000000, 4215.8974609375000000000000000, 4214.8715820312500000000000000, 862.0000000000000000000000000, 2037.0000000000000000000000000, 1996.0000000000000000000000000, 0.0000000000000000000000000, 0.0000000000000000000000000, 0.0000000000000000000000000, 399.0000000000000000000000000, 461.0256347656250000000000000, 4.0000000000000000000000000, 4.0000000000000000000000000, 4.0000000000000000000000000, 4.0000000000000000000000000, 4.0000000000000000000000000, 4.0000000000000000000000000, 4.0000000000000000000000000, 4.0000000000000000000000000, 4.0000000000000000000000000, 4.0000000000000000000000000, 4.0000000000000000000000000, 4.0000000000000000000000000, 4.0000000000000000000000000, 4.0000000000000000000000000, 4.0000000000000000000000000, 4.0000000000000000000000000
113.0000000000000000000000000, 0.0000000000000000000000000, 4197.9487304687500000000000000, 4184.1025390625000000000000000, 4186.6665039062500000000000000, 4214.3588867187500000000000000, 4196.9228515625000000000000000, 4186.6665039062500000000000000, 4195.8974609375000000000000000, 4189.2304687500000000000000000, 4190.7690429687500000000000000, 4198.9741210937500000000000000, 4198.9741210937500000000000000, 4203.5898437500000000000000000, 4207.1791992187500000000000000, 4207.1791992187500000000000000, 814.0000000000000000000000000, 2041.0000000000000000000000000, 1997.0000000000000000000000000, 0.0000000000000000000000000, 0.0000000000000000000000000, 0.0000000000000000000000000, 399.0000000000000000000000000, 468.7179260253906250000000000, 4.0000000000000000000000000, 4.0000000000000000000000000, 4.0000000000000000000000000, 4.0000000000000000000000000, 4.0000000000000000000000000, 4.0000000000000000000000000, 4.0000000000000000000000000, 4.0000000000000000000000000, 4.0000000000000000000000000, 4.0000000000000000000000000, 4.0000000000000000000000000, 4.0000000000000000000000000, 4.0000000000000000000000000, 4.0000000000000000000000000, 4.0000000000000000000000000, 4.0000000000000000000000000
114.0000000000000000000000000, 0.0000000000000000000000000, 4183.0766601562500000000000000, 4171.7949218750000000000000000, 4177.9487304687500000000000000, 4227.6923828125000000000000000, 4187.6923828125000000000000000, 4180.5126953125000000000000000, 4196.4101562500000000000000000, 4182.0512695312500000000000000, 4196.4101562500000000000000000, 4190.7690429687500000000000000, 4184.6152343750000000000000000, 4208.7177734375000000000000000, 4199.4873046875000000000000000, 4198.4614257812500000000000000, 868.0000000000000000000000000, 2045.0000000000000000000000000, 1997.0000000000000000000000000, 0.0000000000000000000000000, 0.0000000000000000000000000, 0.0000000000000000000000000, 399.0000000000000000000000000, 476.9230651855468750000000000, 4.0000000000000000000000000, 4.0000000000000000000000000, 4.0000000000000000000000000, 4.0000000000000000000000000, 4.0000000000000000000000000, 4.0000000000000000000000000, 4.0000000000000000000000000, 4.0000000000000000000000000, 4.0000000000000000000000000, 4.0000000000000000000000000, 4.0000000000000000000000000, 4.0000000000000000000000000, 4.0000000000000000000000000, 4.0000000000000000000000000, 4.0000000000000000000000000, 4.0000000000000000000000000
115.0000000000000000000000000, 0.0000000000000000000000000, 4185.1279296875000000000000000, 4175.8974609375000000000000000, 4184.1025390625000000000000000, 4221.0253906250000000000000000, 4188.7177734375000000000000000, 4183.0766601562500000000000000, 4203.5898437500000000000000000, 4193.3330078125000000000000000, 4186.6665039062500000000000000, 4196.4101562500000000000000000, 4192.3076171875000000000000000, 4205.1279296875000000000000000, 4201.0253906250000000000000000, 4202.5639648437500000000000000, 865.0000000000000000000000000, 2048.0000000000000000000000000, 2001.0000000000000000000000000, 0.0000000000000000000000000, 0.0000000000000000000000000, 0.0000000000000000000000000, 399.0000000000000000000000000, 484.6153869628906250000000000, 4.0000000000000000000000000, 4.0000000000000000000000000, 4.0000000000000000000000000, 4.0000000000000000000000000, 4.0000000000000000000000000, 4.0000000000000000000000000, 4.0000000000000000000000000, 4.0000000000000000000000000, 4.0000000000000000000000000, 4.0000000000000000000000000, 4.0000000000000000000000000, 4.0000000000000000000000000, 4.0000000000000000000000000, 4.0000000000000000000000000, 4.0000000000000000000000000, 4.0000000000000000000000000
116.0000000000000000000000000, 0.0000000000000000000000000, 4192.8203125000000000000000000, 4178.9741210937500000000000000, 4192.3076171875000000000000000, 4211.2817382812500000000000000, 4189.2304687500000000000000000, 4184.6152343750000000000000000, 4201.5385742187500000000000000, 4197.4360351562500000000000000, 4186.6665039062500000000000000, 4194.8715820312500000000000000, 4198.4614257812500000000000000, 4206.1538085937500000000000000, 4198.4614257812500000000000000, 4202.0512695312500000000000000, 862.0000000000000000000000000, 2048.0000000000000000000000000, 2004.0000000000000000000000000, 0.0000000000000000000000000, 0.0000000000000000000000000, 0.0000000000000000000000000, 399.0000000000000000000000000, 492.8204956054687500000000000, 4.0000000000000000000000000, 4.0000000000000000000000000, 4.0000000000000000000000000, 4.0000000000000000000000000, 4.0000000000000000000000000, 4.0000000000000000000000000, 4.0000000000000000000000000, 4.0000000000000000000000000, 4.0000000000000000000000000, 4.0000000000000000000000000, 4.0000000000000000000000000, 4.0000000000000000000000000, 4.0000000000000000000000000, 4.0000000000000000000000000, 4.0000000000000000000000000, 4.0000000000000000000000000
117.0000000000000000000000000, 0.0000000000000000000000000, 4182.0512695312500000000000000, 4170.7690429687500000000000000, 4180.0000000000000000000000000, 4221.0253906250000000000000000, 4184.6152343750000000000000000, 4177.9487304687500000000000000, 4187.1791992187500000000000000, 4188.7177734375000000000000000, 4195.3842773437500000000000000, 4187.6923828125000000000000000, 4188.2050781250000000000000000, 4217.4360351562500000000000000, 4188.2050781250000000000000000, 4192.3076171875000000000000000, 814.0000000000000000000000000, 2052.0000000000000000000000000, 2011.0000000000000000000000000, 0.0000000000000000000000000, 0.0000000000000000000000000, 0.0000000000000000000000000, 399.0000000000000000000000000, 500.5128173828125000000000000, 4.0000000000000000000000000, 4.0000000000000000000000000, 4.0000000000000000000000000, 4.0000000000000000000000000, 4.0000000000000000000000000, 4.0000000000000000000000000, 4.0000000000000000000000000, 4.0000000000000000000000000, 4.0000000000000000000000000, 4.0000000000000000000000000, 4.0000000000000000000000000, 4.0000000000000000000000000, 4.0000000000000000000000000, 4.0000000000000000000000000, 4.0000000000000000000000000, 4.0000000000000000000000000
118.0000000000000000000000000, 0.0000000000000000000000000, 4173.3330078125000000000000000, 4166.1538085937500000000000000, 4176.9228515625000000000000000, 4225.1279296875000000000000000, 4187.1791992187500000000000000, 4178.4614257812500000000000000, 4189.2304687500000000000000000, 4189.7436523437500000000000000, 4194.3588867187500000000000000, 4193.8461914062500000000000000, 4188.2050781250000000000000000, 4220.0000000000000000000000000, 4186.6665039062500000000000000, 4188.7177734375000000000000000, 868.0000000000000000000000000, 2052.0000000000000000000000000, 2016.0000000000000000000000000, 0.0000000000000000000000000, 0.0000000000000000000000000, 0.0000000000000000000000000, 399.0000000000000000000000000, 508.2051086425781250000000000, 4.0000000000000000000000000, 4.0000000000000000000000000, 4.0000000000000000000000000, 4.0000000000000000000000000, 4.0000000000000000000000000, 4.0000000000000000000000000, 4.0000000000000000000000000, 4.0000000000000000000000000, 4.0000000000000000000000000, 4.0000000000000000000000000, 4.0000000000000000000000000, 4.0000000000000000000000000, 4.0000000000000000000000000, 4.0000000000000000000000000, 4.0000000000000000000000000, 4.0000000000000000000000000
119.0000000000000000000000000, 0.0000000000000000000000000, 4184.6152343750000000000000000, 4173.8461914062500000000000000, 4186.6665039062500000000000000, 4211.7949218750000000000000000, 4200.5126953125000000000000000, 4190.7690429687500000000000000, 4202.0512695312500000000000000, 4201.0253906250000000000000000, 4181.0253906250000000000000000, 4212.8203125000000000000000000, 4204.1025390625000000000000000, 4206.6665039062500000000000000, 4207.1791992187500000000000000, 4197.4360351562500000000000000, 865.0000000000000000000000000, 2054.0000000000000000000000000, 2019.0000000000000000000000000, 0.0000000000000000000000000, 0.0000000000000000000000000, 0.0000000000000000000000000, 399.0000000000000000000000000, 515.8973999023437500000000000, 4.0000000000000000000000000, 4.0000000000000000000000000, 4.0000000000000000000000000, 4.0000000000000000000000000, 4.0000000000000000000000000, 4.0000000000000000000000000, 4.0000000000000000000000000, 4.0000000000000000000000000, 4.0000000000000000000000000, 4.0000000000000000000000000, 4.0000000000000000000000000, 4.0000000000000000000000000, 4.0000000000000000000000000, 4.0000000000000000000000000, 4.0000000000000000000000000, 4.0000000000000000000000000
120.0000000000000000000000000, 0.0000000000000000000000000, 4188.7177734375000000000000000, 4181.0253906250000000000000000, 4183.5898437500000000000000000, 4216.4101562500000000000000000, 4206.6665039062500000000000000, 4195.3842773437500000000000000, 4200.5126953125000000000000000, 4206.1538085937500000000000000, 4177.4360351562500000000000000, 4222.5639648437500000000000000, 4209.7436523437500000000000000, 4204.1025390625000000000000000, 4221.5385742187500000000000000, 4201.5385742187500000000000000, 862.0000000000000000000000000, 2053.0000000000000000000000000, 2029.0000000000000000000000000, 0.0000000000000000000000000, 0.0000000000000000000000000, 0.0000000000000000000000000, 399.0000000000000000000000000, 524.1025390625000000000000000, 4.0000000000000000000000000, 4.0000000000000000000000000, 4.0000000000000000000000000, 4.0000000000000000000000000, 4.0000000000000000000000000, 4.0000000000000000000000000, 4.0000000000000000000000000, 4.0000000000000000000000000, 4.0000000000000000000000000, 4.0000000000000000000000000, 4.0000000000000000000000000, 4.0000000000000000000000000, 4.0000000000000000000000000, 4.0000000000000000000000000, 4.0000000000000000000000000, 4.0000000000000000000000000
121.0000000000000000000000000, 0.0000000000000000000000000, 4178.4614257812500000000000000, 4178.4614257812500000000000000, 4176.4101562500000000000000000, 4228.2050781250000000000000000, 4200.5126953125000000000000000, 4188.7177734375000000000000000, 4192.8203125000000000000000000, 4196.4101562500000000000000000, 4184.1025390625000000000000000, 4215.3842773437500000000000000, 4201.5385742187500000000000000, 4217.4360351562500000000000000, 4213.8461914062500000000000000, 4193.3330078125000000000000000, 814.0000000000000000000000000, 2054.0000000000000000000000000, 2030.0000000000000000000000000, 0.0000000000000000000000000, 0.0000000000000000000000000, 0.0000000000000000000000000, 399.0000000000000000000000000, 531.7948608398437500000000000, 4.0000000000000000000000000, 4.0000000000000000000000000, 4.0000000000000000000000000, 4.0000000000000000000000000, 4.0000000000000000000000000, 4.0000000000000000000000000, 4.0000000000000000000000000, 4.0000000000000000000000000, 4.0000000000000000000000000, 4.0000000000000000000000000, 4.0000000000000000000000000, 4.0000000000000000000000000, 4.0000000000000000000000000, 4.0000000000000000000000000, 4.0000000000000000000000000, 4.0000000000000000000000000
122.0000000000000000000000000, 0.0000000000000000000000000, 4175.3842773437500000000000000, 4181.5385742187500000000000000, 4167.6923828125000000000000000, 4216.4101562500000000000000000, 4201.0253906250000000000000000, 4189.2304687500000000000000000, 4193.3330078125000000000000000, 4189.2304687500000000000000000, 4183.5898437500000000000000000, 4217.4360351562500000000000000, 4200.5126953125000000000000000, 4226.6665039062500000000000000, 4211.7949218750000000000000000, 4190.7690429687500000000000000, 868.0000000000000000000000000, 2051.0000000000000000000000000, 2043.0000000000000000000000000, 0.0000000000000000000000000, 0.0000000000000000000000000, 0.0000000000000000000000000, 399.0000000000000000000000000, 539.4871826171875000000000000, 4.0000000000000000000000000, 4.0000000000000000000000000, 4.0000000000000000000000000, 4.0000000000000000000000000, 4.0000000000000000000000000, 4.0000000000000000000000000, 4.0000000000000000000000000, 4.0000000000000000000000000, 4.0000000000000000000000000, 4.0000000000000000000000000, 4.0000000000000000000000000, 4.0000000000000000000000000, 4.0000000000000000000000000, 4.0000000000000000000000000, 4.0000000000000000000000000, 4.0000000000000000000000000
123.0000000000000000000000000, 0.0000000000000000000000000, 4186.6665039062500000000000000, 4186.6665039062500000000000000, 4180.0000000000000000000000000, 4205.1279296875000000000000000, 4207.6923828125000000000000000, 4200.0000000000000000000000000, 4201.0253906250000000000000000, 4197.4360351562500000000000000, 4182.0512695312500000000000000, 4220.5126953125000000000000000, 4205.6411132812500000000000000, 4217.9487304687500000000000000, 4217.4360351562500000000000000, 4198.9741210937500000000000000, 865.0000000000000000000000000, 2046.0000000000000000000000000, 2048.0000000000000000000000000, 0.0000000000000000000000000, 0.0000000000000000000000000, 0.0000000000000000000000000, 399.0000000000000000000000000, 547.1794433593750000000000000, 4.0000000000000000000000000, 4.0000000000000000000000000, 4.0000000000000000000000000, 4.0000000000000000000000000, 4.0000000000000000000000000, 4.0000000000000000000000000, 4.0000000000000000000000000, 4.0000000000000000000000000, 4.0000000000000000000000000, 4.0000000000000000000000000, 4.0000000000000000000000000, 4.0000000000000000000000000, 4.0000000000000000000000000, 4.0000000000000000000000000, 4.0000000000000000000000000, 4.0000000000000000000000000
124.0000000000000000000000000, 0.0000000000000000000000000, 4192.3076171875000000000000000, 4184.6152343750000000000000000, 4188.2050781250000000000000000, 4211.7949218750000000000000000, 4208.2050781250000000000000000, 4194.3588867187500000000000000, 4196.9228515625000000000000000, 4200.5126953125000000000000000, 4184.1025390625000000000000000, 4207.1791992187500000000000000, 4202.0512695312500000000000000, 4213.8461914062500000000000000, 4213.3330078125000000000000000, 4202.0512695312500000000000000, 862.0000000000000000000000000, 2042.0000000000000000000000000, 2057.0000000000000000000000000, 0.0000000000000000000000000, 0.0000000000000000000000000, 0.0000000000000000000000000, 399.0000000000000000000000000, 555.3845825195312500000000000, 4.0000000000000000000000000, 4.0000000000000000000000000, 4.0000000000000000000000000, 4.0000000000000000000000000, 4.0000000000000000000000000, 4.0000000000000000000000000, 4.0000000000000000000000000, 4.0000000000000000000000000, 4.0000000000000000000000000, 4.0000000000000000000000000, 4.0000000000000000000000000, 4.0000000000000000000000000, 4.0000000000000000000000000, 4.0000000000000000000000000, 4.0000000000000000000000000, 4.0000000000000000000000000
125.0000000000000000000000000, 0.0000000000000000000000000, 4185.1279296875000000000000000, 4181.0253906250000000000000000, 4172.3076171875000000000000000, 4215.8974609375000000000000000, 4203.0766601562500000000000000, 4178.4614257812500000000000000, 4188.2050781250000000000000000, 4189.2304687500000000000000000, 4187.1791992187500000000000000, 4200.5126953125000000000000000, 4195.3842773437500000000000000, 4220.5126953125000000000000000, 4208.2050781250000000000000000, 4197.4360351562500000000000000, 814.0000000000000000000000000, 2039.0000000000000000000000000, 2063.0000000000000000000000000, 0.0000000000000000000000000, 0.0000000000000000000000000, 0.0000000000000000000000000, 399.0000000000000000000000000, 563.0769042968750000000000000, 4.0000000000000000000000000, 4.0000000000000000000000000, 4.0000000000000000000000000, 4.0000000000000000000000000, 4.0000000000000000000000000, 4.0000000000000000000000000, 4.0000000000000000000000000, 4.0000000000000000000000000, 4.0000000000000000000000000, 4.0000000000000000000000000, 4.0000000000000000000000000, 4.0000000000000000000000000, 4.0000000000000000000000000, 4.0000000000000000000000000, 4.0000000000000000000000000, 4.0000000000000000000000000
126.0000000000000000000000000, 0.0000000000000000000000000, 4181.5385742187500000000000000, 4183.0766601562500000000000000, 4172.8203125000000000000000000, 4213.3330078125000000000000000, 4199.4873046875000000000000000, 4184.1025390625000000000000000, 4192.8203125000000000000000000, 4186.6665039062500000000000000, 4189.2304687500000000000000000, 4203.5898437500000000000000000, 4195.8974609375000000000000000, 4218.4614257812500000000000000, 4209.7436523437500000000000000, 4194.8715820312500000000000000, 868.0000000000000000000000000, 2035.0000000000000000000000000, 2070.0000000000000000000000000, 0.0000000000000000000000000, 0.0000000000000000000000000, 0.0000000000000000000000000, 399.0000000000000000000000000, 571.2820434570312500000000000, 4.0000000000000000000000000, 4.0000000000000000000000000, 4.0000000000000000000000000, 4.0000000000000000000000000, 4.0000000000000000000000000, 4.0000000000000000000000000, 4.0000000000000000000000000, 4.0000000000000000000000000, 4.0000000000000000000000000, 4.0000000000000000000000000, 4.0000000000000000000000000, 4.0000000000000000000000000, 4.0000000000000000000000000, 4.0000000000000000000000000, 4.0000000000000000000000000, 4.0000000000000000000000000
127.0000000000000000000000000, 0.0000000000000000000000000, 4186.1538085937500000000000000, 4186.1538085937500000000000000, 4184.1025390625000000000000000, 4219.4873046875000000000000000, 4203.5898437500000000000000000, 4191.2817382812500000000000000, 4192.8203125000000000000000000, 4196.9228515625000000000000000, 4185.1279296875000000000000000, 4204.6152343750000000000000000, 4200.5126953125000000000000000, 4214.3588867187500000000000000, 4213.3330078125000000000000000, 4200.0000000000000000000000000, 865.0000000000000000000000000, 2032.0000000000000000000000000, 2072.0000000000000000000000000, 0.0000000000000000000000000, 0.0000000000000000000000000, 0.0000000000000000000000000, 399.0000000000000000000000000, 578.9743652343750000000000000, 4.0000000000000000000000000, 4.0000000000000000000000000, 4.0000000000000000000000000, 4.0000000000000000000000000, 4.0000000000000000000000000, 4.0000000000000000000000000, 4.0000000000000000000000000, 4.0000000000000000000000000, 4.0000000000000000000000000, 4.0000000000000000000000000, 4.0000000000000000000000000, 4.0000000000000000000000000, 4.0000000000000000000000000, 4.0000000000000000000000000, 4.0000000000000000000000000, 4.0000000000000000000000000
128.0000000000000000000000000, 0.0000000000000000000000000, 4188.2050781250000000000000000, 4185.6411132812500000000000000, 4190.7690429687500000000000000, 4218.9741210937500000000000000, 4206.1538085937500000000000000, 4183.5898437500000000000000000, 4189.2304687500000000000000000, 4198.9741210937500000000000000, 4182.0512695312500000000000000, 4208.7177734375000000000000000, 4204.6152343750000000000000000, 4210.2563476562500000000000000, 4218.9741210937500000000000000, 4205.6411132812500000000000000, 862.0000000000000000000000000, 2030.0000000000000000000000000, 2076.0000000000000000000000000, 0.0000000000000000000000000, 0.0000000000000000000000000, 0.0000000000000000000000000, 399.0000000000000000000000000, 586.6666259765625000000000000, 4.0000000000000000000000000, 4.0000000000000000000000000, 4.0000000000000000000000000, 4.0000000000000000000000000, 4.0000000000000000000000000, 4.0000000000000000000000000, 4.0000000000000000000000000, 4.0000000000000000000000000, 4.0000000000000000000000000, 4.0000000000000000000000000, 4.0000000000000000000000000, 4.0000000000000000000000000, 4.0000000000000000000000000, 4.0000000000000000000000000, 4.0000000000000000000000000, 4.0000000000000000000000000
0.0000000000000000000000000, 0.0000000000000000000000000, 4184.6152343750000000000000000, 4181.0253906250000000000000000, 4193.3330078125000000000000000, 4212.3076171875000000000000000, 4201.0253906250000000000000000, 4181.5385742187500000000000000, 4186.1538085937500000000000000, 4199.4873046875000000000000000, 4186.1538085937500000000000000, 4210.7690429687500000000000000, 4205.6411132812500000000000000, 4203.5898437500000000000000000, 4219.4873046875000000000000000, 4204.6152343750000000000000000, 817.0000000000000000000000000, 2027.0000000000000000000000000, 2075.0000000000000000000000000, 0.0000000000000000000000000, 0.0000000000000000000000000, 0.0000000000000000000000000, 399.0000000000000000000000000, 586.6666259765625000000000000, 4.0000000000000000000000000, 4.0000000000000000000000000, 4.0000000000000000000000000, 4.0000000000000000000000000, 4.0000000000000000000000000, 4.0000000000000000000000000, 4.0000000000000000000000000, 4.0000000000000000000000000, 4.0000000000000000000000000, 4.0000000000000000000000000, 4.0000000000000000000000000, 4.0000000000000000000000000, 4.0000000000000000000000000, 4.0000000000000000000000000, 4.0000000000000000000000000, 4.0000000000000000000000000
1.0000000000000000000000000, 0.0000000000000000000000000, 4180.0000000000000000000000000, 4174.8715820312500000000000000, 4187.1791992187500000000000000, 4217.9487304687500000000000000, 4194.8715820312500000000000000, 4179.4873046875000000000000000, 4178.9741210937500000000000000, 4201.5385742187500000000000000, 4190.7690429687500000000000000, 4198.4614257812500000000000000, 4201.0253906250000000000000000, 4207.1791992187500000000000000, 4209.2304687500000000000000000, 4198.4614257812500000000000000, 859.0000000000000000000000000, 2020.0000000000000000000000000, 2076.0000000000000000000000000, 0.0000000000000000000000000, 0.0000000000000000000000000, 0.0000000000000000000000000, 399.0000000000000000000000000, 594.8717651367187500000000000, 4.0000000000000000000000000, 4.0000000000000000000000000, 4.0000000000000000000000000, 4.0000000000000000000000000, 4.0000000000000000000000000, 4.0000000000000000000000000, 4.0000000000000000000000000, 4.0000000000000000000000000, 4.0000000000000000000000000, 4.0000000000000000000000000, 4.0000000000000000000000000, 4.0000000000000000000000000, 4.0000000000000000000000000, 4.0000000000000000000000000, 4.0000000000000000000000000, 4.0000000000000000000000000
2.0000000000000000000000000, 0.0000000000000000000000000, 4183.0766601562500000000000000, 4176.9228515625000000000000000, 4184.6152343750000000000000000, 4220.0000000000000000000000000, 4193.8461914062500000000000000, 4175.8974609375000000000000000, 4181.0253906250000000000000000, 4198.4614257812500000000000000, 4190.7690429687500000000000000, 4188.7177734375000000000000000, 4192.3076171875000000000000000, 4214.3588867187500000000000000, 4199.4873046875000000000000000, 4195.3842773437500000000000000, 856.0000000000000000000000000, 2015.0000000000000000000000000, 2072.0000000000000000000000000, 0.0000000000000000000000000, 0.0000000000000000000000000, 0.0000000000000000000000000, 399.0000000000000000000000000, 602.5640869140625000000000000, 4.0000000000000000000000000, 4.0000000000000000000000000, 4.0000000000000000000000000, 4.0000000000000000000000000, 4.0000000000000000000000000, 4.0000000000000000000000000, 4.0000000000000000000000000, 4.0000000000000000000000000, 4.0000000000000000000000000, 4.0000000000000000000000000, 4.0000000000000000000000000, 4.0000000000000000000000000, 4.0000000000000000000000000, 4.0000000000000000000000000, 4.0000000000000000000000000, 4.0000000000000000000000000
3.0000000000000000000000000, 0.0000000000000000000000000, 4191.7949218750000000000000000, 4187.1791992187500000000000000, 4190.7690429687500000000000000, 4210.2563476562500000000000000, 4199.4873046875000000000000000, 4184.1025390625000000000000000, 4190.2563476562500000000000000, 4198.9741210937500000000000000, 4186.1538085937500000000000000, 4199.4873046875000000000000000, 4188.7177734375000000000000000, 4212.3076171875000000000000000, 4203.5898437500000000000000000, 4198.9741210937500000000000000, 860.0000000000000000000000000, 2004.0000000000000000000000000, 2073.0000000000000000000000000, 0.0000000000000000000000000, 0.0000000000000000000000000, 0.0000000000000000000000000, 399.0000000000000000000000000, 610.7692260742187500000000000, 4.0000000000000000000000000, 4.0000000000000000000000000, 4.0000000000000000000000000, 4.0000000000000000000000000, 4.0000000000000000000000000, 4.0000000000000000000000000, 4.0000000000000000000000000, 4.0000000000000000000000000, 4.0000000000000000000000000, 4.0000000000000000000000000, 4.0000000000000000000000000, 4.0000000000000000000000000, 4.0000000000000000000000000, 4.0000000000000000000000000, 4.0000000000000000000000000, 4.0000000000000000000000000
4.0000000000000000000000000, 0.0000000000000000000000000, 4191.7949218750000000000000000, 4189.2304687500000000000000000, 4194.8715820312500000000000000, 4208.7177734375000000000000000, 4207.6923828125000000000000000, 4194.8715820312500000000000000, 4196.4101562500000000000000000, 4203.0766601562500000000000000, 4183.5898437500000000000000000, 4206.6665039062500000000000000, 4193.3330078125000000000000000, 4207.6923828125000000000000000, 4212.8203125000000000000000000, 4201.0253906250000000000000000, 884.0000000000000000000000000, 1997.0000000000000000000000000, 2073.0000000000000000000000000, 0.0000000000000000000000000, 0.0000000000000000000000000, 0.0000000000000000000000000, 399.0000000000000000000000000, 618.4615478515625000000000000, 4.0000000000000000000000000, 4.0000000000000000000000000, 4.0000000000000000000000000, 4.0000000000000000000000000, 4.0000000000000000000000000, 4.0000000000000000000000000, 4.0000000000000000000000000, 4.0000000000000000000000000, 4.0000000000000000000000000, 4.0000000000000000000000000, 4.0000000000000000000000000, 4.0000000000000000000000000, 4.0000000000000000000000000, 4.0000000000000000000000000, 4.0000000000000000000000000, 4.0000000000000000000000000
5.0000000000000000000000000, 0.0000000000000000000000000, 4188.7177734375000000000000000, 4186.6665039062500000000000000, 4195.3842773437500000000000000, 4212.8203125000000000000000000, 4213.3330078125000000000000000, 4198.9741210937500000000000000, 4196.4101562500000000000000000, 4204.1025390625000000000000000, 4184.6152343750000000000000000, 4203.5898437500000000000000000, 4196.4101562500000000000000000, 4206.6665039062500000000000000, 4210.7690429687500000000000000, 4200.5126953125000000000000000, 839.0000000000000000000000000, 1984.0000000000000000000000000, 2072.0000000000000000000000000, 0.0000000000000000000000000, 0.0000000000000000000000000, 0.0000000000000000000000000, 399.0000000000000000000000000, 626.6666259765625000000000000, 4.0000000000000000000000000, 4.0000000000000000000000000, 4.0000000000000000000000000, 4.0000000000000000000000000, 4.0000000000000000000000000, 4.0000000000000000000000000, 4.0000000000000000000000000, 4.0000000000000000000000000, 4.0000000000000000000000000, 4.0000000000000000000000000, 4.0000000000000000000000000, 4.0000000000000000000000000, 4.0000000000000000000000000, 4.0000000000000000000000000, 4.0000000000000000000000000, 4.0000000000000000000000000
6.0000000000000000000000000, 0.0000000000000000000000000, 4187.6923828125000000000000000, 4186.6665039062500000000000000, 4188.7177734375000000000000000, 4212.8203125000000000000000000, 4208.7177734375000000000000000, 4194.3588867187500000000000000, 4191.2817382812500000000000000, 4200.0000000000000000000000000, 4183.5898437500000000000000000, 4205.6411132812500000000000000, 4192.8203125000000000000000000, 4213.8461914062500000000000000, 4205.6411132812500000000000000, 4197.4360351562500000000000000, 817.0000000000000000000000000, 1977.0000000000000000000000000, 2070.0000000000000000000000000, 0.0000000000000000000000000, 0.0000000000000000000000000, 0.0000000000000000000000000, 399.0000000000000000000000000, 634.3589477539062500000000000, 4.0000000000000000000000000, 4.0000000000000000000000000, 4.0000000000000000000000000, 4.0000000000000000000000000, 4.0000000000000000000000000, 4.0000000000000000000000000, 4.0000000000000000000000000, 4.0000000000000000000000000, 4.0000000000000000000000000, 4.0000000000000000000000000, 4.0000000000000000000000000, 4.0000000000000000000000000, 4.0000000000000000000000000, 4.0000000000000000000000000, 4.0000000000000000000000000, 4.0000000000000000000000000
7.0000000000000000000000000, 0.0000000000000000000000000, 4184.1025390625000000000000000, 4183.0766601562500000000000000, 4182.5639648437500000000000000, 4212.8203125000000000000000000, 4199.4873046875000000000000000, 4188.2050781250000000000000000, 4188.2050781250000000000000000, 4193.8461914062500000000000000, 4188.2050781250000000000000000, 4203.0766601562500000000000000, 4184.6152343750000000000000000, 4219.4873046875000000000000000, 4202.5639648437500000000000000, 4190.2563476562500000000000000, 826.0000000000000000000000000, 1974.0000000000000000000000000, 2065.0000000000000000000000000, 0.0000000000000000000000000, 0.0000000000000000000000000, 0.0000000000000000000000000, 399.0000000000000000000000000, 642.5640869140625000000000000, 4.0000000000000000000000000, 4.0000000000000000000000000, 4.0000000000000000000000000, 4.0000000000000000000000000, 4.0000000000000000000000000, 4.0000000000000000000000000, 4.0000000000000000000000000, 4.0000000000000000000000000, 4.0000000000000000000000000, 4.0000000000000000000000000, 4.0000000000000000000000000, 4.0000000000000000000000000, 4.0000000000000000000000000, 4.0000000000000000000000000, 4.0000000000000000000000000, 4.0000000000000000000000000
8.0000000000000000000000000, 0.0000000000000000000000000, 4183.5898437500000000000000000, 4182.5639648437500000000000000, 4184.1025390625000000000000000, 4211.7949218750000000000000000, 4201.5385742187500000000000000, 4188.2050781250000000000000000, 4188.2050781250000000000000000, 4194.3588867187500000000000000, 4195.8974609375000000000000000, 4197.9487304687500000000000000, 4185.1279296875000000000000000, 4213.3330078125000000000000000, 4204.6152343750000000000000000, 4194.3588867187500000000000000, 852.0000000000000000000000000, 1972.0000000000000000000000000, 2060.0000000000000000000000000, 0.0000000000000000000000000, 0.0000000000000000000000000, 0.0000000000000000000000000, 399.0000000000000000000000000, 650.2564086914062500000000000, 4.0000000000000000000000000, 4.0000000000000000000000000, 4.0000000000000000000000000, 4.0000000000000000000000000, 4.0000000000000000000000000, 4.0000000000000000000000000, 4.0000000000000000000000000, 4.0000000000000000000000000, 4.0000000000000000000000000, 4.0000000000000000000000000, 4.0000000000000000000000000, 4.0000000000000000000000000, 4.0000000000000000000000000, 4.0000000000000000000000000, 4.0000000000000000000000000, 4.0000000000000000000000000
9.0000000000000000000000000, 0.0000000000000000000000000, 4190.7690429687500000000000000, 4193.8461914062500000000000000, 4188.7177734375000000000000000, 4206.6665039062500000000000000, 4211.7949218750000000000000000, 4193.3330078125000000000000000, 4192.8203125000000000000000000, 4202.0512695312500000000000000, 4192.3076171875000000000000000, 4204.1025390625000000000000000, 4194.8715820312500000000000000, 4207.1791992187500000000000000, 4212.3076171875000000000000000, 4203.0766601562500000000000000, 871.0000000000000000000000000, 1972.0000000000000000000000000, 2057.0000000000000000000000000, 0.0000000000000000000000000, 0.0000000000000000000000000, 0.0000000000000000000000000, 399.0000000000000000000000000, 658.4615478515625000000000000, 4.0000000000000000000000000, 4.0000000000000000000000000, 4.0000000000000000000000000, 4.0000000000000000000000000, 4.0000000000000000000000000, 4.0000000000000000000000000, 4.0000000000000000000000000, 4.0000000000000000000000000, 4.0000000000000000000000000, 4.0000000000000000000000000, 4.0000000000000000000000000, 4.0000000000000000000000000, 4.0000000000000000000000000, 4.0000000000000000000000000, 4.0000000000000000000000000, 4.0000000000000000000000000
10.0000000000000000000000000, 0.0000000000000000000000000, 4200.5126953125000000000000000, 4206.1538085937500000000000000, 4202.0512695312500000000000000, 4202.0512695312500000000000000, 4214.8715820312500000000000000, 4193.3330078125000000000000000, 4197.4360351562500000000000000, 4202.5639648437500000000000000, 4184.1025390625000000000000000, 4210.2563476562500000000000000, 4198.9741210937500000000000000, 4203.5898437500000000000000000, 4215.3842773437500000000000000, 4204.6152343750000000000000000, 868.0000000000000000000000000, 1977.0000000000000000000000000, 2053.0000000000000000000000000, 0.0000000000000000000000000, 0.0000000000000000000000000, 0.0000000000000000000000000, 399.0000000000000000000000000, 666.1538085937500000000000000, 4.0000000000000000000000000, 4.0000000000000000000000000, 4.0000000000000000000000000, 4.0000000000000000000000000, 4.0000000000000000000000000, 4.0000000000000000000000000, 4.0000000000000000000000000, 4.0000000000000000000000000, 4.0000000000000000000000000, 4.0000000000000000000000000, 4.0000000000000000000000000, 4.0000000000000000000000000, 4.0000000000000000000000000, 4.0000000000000000000000000, 4.0000000000000000000000000, 4.0000000000000000000000000
11.0000000000000000000000000, 0.0000000000000000000000000, 4196.9228515625000000000000000, 4201.5385742187500000000000000, 4198.4614257812500000000000000, 4205.6411132812500000000000000, 4209.7436523437500000000000000, 4187.6923828125000000000000000, 4193.3330078125000000000000000, 4193.3330078125000000000000000, 4188.2050781250000000000000000, 4205.6411132812500000000000000, 4192.8203125000000000000000000, 4206.6665039062500000000000000, 4209.2304687500000000000000000, 4201.0253906250000000000000000, 865.0000000000000000000000000, 1982.0000000000000000000000000, 2053.0000000000000000000000000, 0.0000000000000000000000000, 0.0000000000000000000000000, 0.0000000000000000000000000, 399.0000000000000000000000000, 674.3589477539062500000000000, 4.0000000000000000000000000, 4.0000000000000000000000000, 4.0000000000000000000000000, 4.0000000000000000000000000, 4.0000000000000000000000000, 4.0000000000000000000000000, 4.0000000000000000000000000, 4.0000000000000000000000000, 4.0000000000000000000000000, 4.0000000000000000000000000, 4.0000000000000000000000000, 4.0000000000000000000000000, 4.0000000000000000000000000, 4.0000000000000000000000000, 4.0000000000000000000000000, 4.0000000000000000000000000
12.0000000000000000000000000, 0.0000000000000000000000000, 4188.2050781250000000000000000, 4193.8461914062500000000000000, 4186.6665039062500000000000000, 4207.1791992187500000000000000, 4203.0766601562500000000000000, 4184.6152343750000000000000000, 4191.2817382812500000000000000, 4191.7949218750000000000000000, 4195.3842773437500000000000000, 4196.9228515625000000000000000, 4186.1538085937500000000000000, 4213.3330078125000000000000000, 4205.1279296875000000000000000, 4198.9741210937500000000000000, 862.0000000000000000000000000, 1988.0000000000000000000000000, 2051.0000000000000000000000000, 0.0000000000000000000000000, 0.0000000000000000000000000, 0.0000000000000000000000000, 399.0000000000000000000000000, 682.5640869140625000000000000, 4.0000000000000000000000000, 4.0000000000000000000000000, 4.0000000000000000000000000, 4.0000000000000000000000000, 4.0000000000000000000000000, 4.0000000000000000000000000, 4.0000000000000000000000000, 4.0000000000000000000000000, 4.0000000000000000000000000, 4.0000000000000000000000000, 4.0000000000000000000000000, 4.0000000000000000000000000, 4.0000000000000000000000000, 4.0000000000000000000000000, 4.0000000000000000000000000, 4.0000000000000000000000000
13.0000000000000000000000000, 0.0000000000000000000000000, 4199.4873046875000000000000000, 4198.9741210937500000000000000, 4196.9228515625000000000000000, 4199.4873046875000000000000000, 4201.0253906250000000000000000, 4189.2304687500000000000000000, 4193.8461914062500000000000000, 4196.4101562500000000000000000, 4192.3076171875000000000000000, 4193.8461914062500000000000000, 4190.2563476562500000000000000, 4206.6665039062500000000000000, 4210.7690429687500000000000000, 4208.7177734375000000000000000, 827.0000000000000000000000000, 1993.0000000000000000000000000, 2050.0000000000000000000000000, 0.0000000000000000000000000, 0.0000000000000000000000000, 0.0000000000000000000000000, 399.0000000000000000000000000, 690.2564086914062500000000000, 4.0000000000000000000000000, 4.0000000000000000000000000, 4.0000000000000000000000000, 4.0000000000000000000000000, 4.0000000000000000000000000, 4.0000000000000000000000000, 4.0000000000000000000000000, 4.0000000000000000000000000, 4.0000000000000000000000000, 4.0000000000000000000000000, 4.0000000000000000000000000, 4.0000000000000000000000000, 4.0000000000000000000000000, 4.0000000000000000000000000, 4.0000000000000000000000000, 4.0000000000000000000000000
14.0000000000000000000000000, 0.0000000000000000000000000, 4210.7690429687500000000000000, 4204.1025390625000000000000000, 4200.5126953125000000000000000, 4193.3330078125000000000000000, 4204.1025390625000000000000000, 4194.8715820312500000000000000, 4194.3588867187500000000000000, 4196.4101562500000000000000000, 4186.6665039062500000000000000, 4196.9228515625000000000000000, 4196.9228515625000000000000000, 4202.0512695312500000000000000, 4217.4360351562500000000000000, 4217.4360351562500000000000000, 868.0000000000000000000000000, 2008.0000000000000000000000000, 2050.0000000000000000000000000, 0.0000000000000000000000000, 0.0000000000000000000000000, 0.0000000000000000000000000, 399.0000000000000000000000000, 698.4615478515625000000000000, 4.0000000000000000000000000, 4.0000000000000000000000000, 4.0000000000000000000000000, 4.0000000000000000000000000, 4.0000000000000000000000000, 4.0000000000000000000000000, 4.0000000000000000000000000, 4.0000000000000000000000000, 4.0000000000000000000000000, 4.0000000000000000000000000, 4.0000000000000000000000000, 4.0000000000000000000000000, 4.0000000000000000000000000, 4.0000000000000000000000000, 4.0000000000000000000000000, 4.0000000000000000000000000
15.0000000000000000000000000, 0.0000000000000000000000000, 4209.7436523437500000000000000, 4202.5639648437500000000000000, 4196.4101562500000000000000000, 4194.3588867187500000000000000, 4205.6411132812500000000000000, 4193.8461914062500000000000000, 4197.4360351562500000000000000, 4196.9228515625000000000000000, 4187.6923828125000000000000000, 4202.5639648437500000000000000, 4198.4614257812500000000000000, 4204.1025390625000000000000000, 4216.9228515625000000000000000, 4216.4101562500000000000000000, 865.0000000000000000000000000, 2014.0000000000000000000000000, 2049.0000000000000000000000000, 0.0000000000000000000000000, 0.0000000000000000000000000, 0.0000000000000000000000000, 399.0000000000000000000000000, 706.1538085937500000000000000, 4.0000000000000000000000000, 4.0000000000000000000000000, 4.0000000000000000000000000, 4.0000000000000000000000000, 4.0000000000000000000000000, 4.0000000000000000000000000, 4.0000000000000000000000000, 4.0000000000000000000000000, 4.0000000000000000000000000, 4.0000000000000000000000000, 4.0000000000000000000000000, 4.0000000000000000000000000, 4.0000000000000000000000000, 4.0000000000000000000000000, 4.0000000000000000000000000, 4.0000000000000000000000000
16.0000000000000000000000000, 0.0000000000000000000000000, 4207.1791992187500000000000000, 4202.5639648437500000000000000, 4194.3588867187500000000000000, 4200.0000000000000000000000000, 4197.4360351562500000000000000, 4188.7177734375000000000000000, 4195.3842773437500000000000000, 4197.4360351562500000000000000, 4191.2817382812500000000000000, 4203.0766601562500000000000000, 4195.3842773437500000000000000, 4208.7177734375000000000000000, 4211.2817382812500000000000000, 4211.2817382812500000000000000, 0.0000000000000000000000000, 2025.0000000000000000000000000, 2045.0000000000000000000000000, 0.0000000000000000000000000, 0.0000000000000000000000000, 0.0000000000000000000000000, 399.0000000000000000000000000, 714.3589477539062500000000000, 4.0000000000000000000000000, 4.0000000000000000000000000, 4.0000000000000000000000000, 4.0000000000000000000000000, 4.0000000000000000000000000, 4.0000000000000000000000000, 4.0000000000000000000000000, 4.0000000000000000000000000, 4.0000000000000000000000000, 4.0000000000000000000000000, 4.0000000000000000000000000, 4.0000000000000000000000000, 4.0000000000000000000000000, 4.0000000000000000000000000, 4.0000000000000000000000000, 4.0000000000000000000000000
17.0000000000000000000000000, 0.0000000000000000000000000, 4200.0000000000000000000000000, 4197.4360351562500000000000000, 4190.2563476562500000000000000, 4205.1279296875000000000000000, 4185.6411132812500000000000000, 4189.7436523437500000000000000, 4193.8461914062500000000000000, 4198.4614257812500000000000000, 4190.7690429687500000000000000, 4198.9741210937500000000000000, 4190.7690429687500000000000000, 4214.3588867187500000000000000, 4205.1279296875000000000000000, 4205.1279296875000000000000000, 0.0000000000000000000000000, 2029.0000000000000000000000000, 2046.0000000000000000000000000, 0.0000000000000000000000000, 0.0000000000000000000000000, 0.0000000000000000000000000, 399.0000000000000000000000000, 722.0512695312500000000000000, 4.0000000000000000000000000, 4.0000000000000000000000000, 4.0000000000000000000000000, 4.0000000000000000000000000, 4.0000000000000000000000000, 4.0000000000000000000000000, 4.0000000000000000000000000, 4.0000000000000000000000000, 4.0000000000000000000000000, 4.0000000000000000000000000, 4.0000000000000000000000000, 4.0000000000000000000000000, 4.0000000000000000000000000, 4.0000000000000000000000000, 4.0000000000000000000000000, 4.0000000000000000000000000
18.0000000000000000000000000, 0.0000000000000000000000000, 4197.4360351562500000000000000, 4188.2050781250000000000000000, 4192.3076171875000000000000000, 4203.5898437500000000000000000, 4186.1538085937500000000000000, 4189.7436523437500000000000000, 4194.8715820312500000000000000, 4200.5126953125000000000000000, 4184.6152343750000000000000000, 4202.0512695312500000000000000, 4190.7690429687500000000000000, 4211.2817382812500000000000000, 4205.6411132812500000000000000, 4205.1279296875000000000000000, 0.0000000000000000000000000, 2039.0000000000000000000000000, 2046.0000000000000000000000000, 0.0000000000000000000000000, 0.0000000000000000000000000, 0.0000000000000000000000000, 399.0000000000000000000000000, 730.2564086914062500000000000, 4.0000000000000000000000000, 4.0000000000000000000000000, 4.0000000000000000000000000, 4.0000000000000000000000000, 4.0000000000000000000000000, 4.0000000000000000000000000, 4.0000000000000000000000000, 4.0000000000000000000000000, 4.0000000000000000000000000, 4.0000000000000000000000000, 4.0000000000000000000000000, 4.0000000000000000000000000, 4.0000000000000000000000000, 4.0000000000000000000000000, 4.0000000000000000000000000, 4.0000000000000000000000000
19.0000000000000000000000000, 0.0000000000000000000000000, 4198.9741210937500000000000000, 4186.1538085937500000000000000, 4186.1538085937500000000000000, 4203.5898437500000000000000000, 4191.2817382812500000000000000, 4184.1025390625000000000000000, 4191.2817382812500000000000000, 4200.5126953125000000000000000, 4180.0000000000000000000000000, 4206.6665039062500000000000000, 4190.7690429687500000000000000, 4212.3076171875000000000000000, 4205.6411132812500000000000000, 4205.1279296875000000000000000, 0.0000000000000000000000000, 2043.0000000000000000000000000, 2045.0000000000000000000000000, 0.0000000000000000000000000, 0.0000000000000000000000000, 0.0000000000000000000000000, 399.0000000000000000000000000, 737.9486694335937500000000000, 4.0000000000000000000000000, 4.0000000000000000000000000, 4.0000000000000000000000000, 4.0000000000000000000000000, 4.0000000000000000000000000, 4.0000000000000000000000000, 4.0000000000000000000000000, 4.0000000000000000000000000, 4.0000000000000000000000000, 4.0000000000000000000000000, 4.0000000000000000000000000, 4.0000000000000000000000000, 4.0000000000000000000000000, 4.0000000000000000000000000, 4.0000000000000000000000000, 4.0000000000000000000000000
20.0000000000000000000000000, 0.0000000000000000000000000, 4197.4360351562500000000000000, 4188.2050781250000000000000000, 4181.5385742187500000000000000, 4204.1025390625000000000000000, 4184.1025390625000000000000000, 4185.1279296875000000000000000, 4193.3330078125000000000000000, 4197.4360351562500000000000000, 4187.1791992187500000000000000, 4196.4101562500000000000000000, 4185.6411132812500000000000000, 4221.5385742187500000000000000, 4198.4614257812500000000000000, 4195.8974609375000000000000000, 0.0000000000000000000000000, 2050.0000000000000000000000000, 2045.0000000000000000000000000, 0.0000000000000000000000000, 0.0000000000000000000000000, 0.0000000000000000000000000, 399.0000000000000000000000000, 746.1538085937500000000000000, 4.0000000000000000000000000, 4.0000000000000000000000000, 4.0000000000000000000000000, 4.0000000000000000000000000, 4.0000000000000000000000000, 4.0000000000000000000000000, 4.0000000000000000000000000, 4.0000000000000000000000000, 4.0000000000000000000000000, 4.0000000000000000000000000, 4.0000000000000000000000000, 4.0000000000000000000000000, 4.0000000000000000000000000, 4.0000000000000000000000000, 4.0000000000000000000000000, 4.0000000000000000000000000
21.0000000000000000000000000, 0.0000000000000000000000000, 4196.4101562500000000000000000, 4186.1538085937500000000000000, 4180.5126953125000000000000000, 4202.5639648437500000000000000, 4180.5126953125000000000000000, 4187.1791992187500000000000000, 4195.3842773437500000000000000, 4196.4101562500000000000000000, 4193.3330078125000000000000000, 4188.2050781250000000000000000, 4185.6411132812500000000000000, 4227.1791992187500000000000000, 4196.9228515625000000000000000, 4189.2304687500000000000000000, 0.0000000000000000000000000, 2055.0000000000000000000000000, 2043.0000000000000000000000000, 0.0000000000000000000000000, 0.0000000000000000000000000, 0.0000000000000000000000000, 399.0000000000000000000000000, 753.8461303710937500000000000, 4.0000000000000000000000000, 4.0000000000000000000000000, 4.0000000000000000000000000, 4.0000000000000000000000000, 4.0000000000000000000000000, 4.0000000000000000000000000, 4.0000000000000000000000000, 4.0000000000000000000000000, 4.0000000000000000000000000, 4.0000000000000000000000000, 4.0000000000000000000000000, 4.0000000000000000000000000, 4.0000000000000000000000000, 4.0000000000000000000000000, 4.0000000000000000000000000, 4.0000000000000000000000000
22.0000000000000000000000000, 0.0000000000000000000000000, 4190.2563476562500000000000000, 4184.6152343750000000000000000, 4174.8715820312500000000000000, 4209.7436523437500000000000000, 4190.7690429687500000000000000, 4180.5126953125000000000000000, 4188.7177734375000000000000000, 4190.7690429687500000000000000, 4195.8974609375000000000000000, 4192.8203125000000000000000000, 4186.1538085937500000000000000, 4227.1791992187500000000000000, 4198.4614257812500000000000000, 4186.6665039062500000000000000, 0.0000000000000000000000000, 2060.0000000000000000000000000, 2039.0000000000000000000000000, 0.0000000000000000000000000, 0.0000000000000000000000000, 0.0000000000000000000000000, 399.0000000000000000000000000, 762.0512695312500000000000000, 4.0000000000000000000000000, 4.0000000000000000000000000, 4.0000000000000000000000000, 4.0000000000000000000000000, 4.0000000000000000000000000, 4.0000000000000000000000000, 4.0000000000000000000000000, 4.0000000000000000000000000, 4.0000000000000000000000000, 4.0000000000000000000000000, 4.0000000000000000000000000, 4.0000000000000000000000000, 4.0000000000000000000000000, 4.0000000000000000000000000, 4.0000000000000000000000000, 4.0000000000000000000000000
23.0000000000000000000000000, 0.0000000000000000000000000, 4188.2050781250000000000000000, 4186.6665039062500000000000000, 4179.4873046875000000000000000, 4215.8974609375000000000000000, 4193.3330078125000000000000000, 4173.8461914062500000000000000, 4182.0512695312500000000000000, 4183.0766601562500000000000000, 4201.0253906250000000000000000, 4195.8974609375000000000000000, 4186.6665039062500000000000000, 4222.5639648437500000000000000, 4197.4360351562500000000000000, 4190.7690429687500000000000000, 0.0000000000000000000000000, 2062.0000000000000000000000000, 2037.0000000000000000000000000, 0.0000000000000000000000000, 0.0000000000000000000000000, 0.0000000000000000000000000, 399.0000000000000000000000000, 770.2564086914062500000000000, 4.0000000000000000000000000, 4.0000000000000000000000000, 4.0000000000000000000000000, 4.0000000000000000000000000, 4.0000000000000000000000000, 4.0000000000000000000000000, 4.0000000000000000000000000, 4.0000000000000000000000000, 4.0000000000000000000000000, 4.0000000000000000000000000, 4.0000000000000000000000000, 4.0000000000000000000000000, 4.0000000000000000000000000, 4.0000000000000000000000000, 4.0000000000000000000000000, 4.0000000000000000000000000
24.0000000000000000000000000, 0.0000000000000000000000000, 4192.3076171875000000000000000, 4188.7177734375000000000000000, 4183.0766601562500000000000000, 4207.6923828125000000000000000, 4185.6411132812500000000000000, 4168.7177734375000000000000000, 4178.4614257812500000000000000, 4186.1538085937500000000000000, 4200.0000000000000000000000000, 4198.4614257812500000000000000, 4196.4101562500000000000000000, 4216.4101562500000000000000000, 4205.6411132812500000000000000, 4198.9741210937500000000000000, 0.0000000000000000000000000, 2064.0000000000000000000000000, 2038.0000000000000000000000000, 0.0000000000000000000000000, 0.0000000000000000000000000, 0.0000000000000000000000000, 399.0000000000000000000000000, 777.9486694335937500000000000, 4.0000000000000000000000000, 4.0000000000000000000000000, 4.0000000000000000000000000, 4.0000000000000000000000000, 4.0000000000000000000000000, 4.0000000000000000000000000, 4.0000000000000000000000000, 4.0000000000000000000000000, 4.0000000000000000000000000, 4.0000000000000000000000000, 4.0000000000000000000000000, 4.0000000000000000000000000, 4.0000000000000000000000000, 4.0000000000000000000000000, 4.0000000000000000000000000, 4.0000000000000000000000000
25.0000000000000000000000000, 0.0000000000000000000000000, 4193.8461914062500000000000000, 4185.6411132812500000000000000, 4184.6152343750000000000000000, 4202.0512695312500000000000000, 4180.0000000000000000000000000, 4167.6923828125000000000000000, 4180.0000000000000000000000000, 4190.7690429687500000000000000, 4197.9487304687500000000000000, 4201.0253906250000000000000000, 4201.0253906250000000000000000, 4212.3076171875000000000000000, 4211.7949218750000000000000000, 4201.5385742187500000000000000, 0.0000000000000000000000000, 2064.0000000000000000000000000, 2039.0000000000000000000000000, 0.0000000000000000000000000, 0.0000000000000000000000000, 0.0000000000000000000000000, 399.0000000000000000000000000, 786.1538085937500000000000000, 4.0000000000000000000000000, 4.0000000000000000000000000, 4.0000000000000000000000000, 4.0000000000000000000000000, 4.0000000000000000000000000, 4.0000000000000000000000000, 4.0000000000000000000000000, 4.0000000000000000000000000, 4.0000000000000000000000000, 4.0000000000000000000000000, 4.0000000000000000000000000, 4.0000000000000000000000000, 4.0000000000000000000000000, 4.0000000000000000000000000, 4.0000000000000000000000000, 4.0000000000000000000000000
26.0000000000000000000000000, 0.0000000000000000000000000, 4200.5126953125000000000000000, 4188.2050781250000000000000000, 4190.2563476562500000000000000, 4203.0766601562500000000000000, 4185.6411132812500000000000000, 4175.3842773437500000000000000, 4184.6152343750000000000000000, 4186.6665039062500000000000000, 4198.4614257812500000000000000, 4198.9741210937500000000000000, 4198.4614257812500000000000000, 4211.7949218750000000000000000, 4208.2050781250000000000000000, 4204.6152343750000000000000000, 0.0000000000000000000000000, 2061.0000000000000000000000000, 2038.0000000000000000000000000, 0.0000000000000000000000000, 0.0000000000000000000000000, 0.0000000000000000000000000, 399.0000000000000000000000000, 793.8461303710937500000000000, 4.0000000000000000000000000, 4.0000000000000000000000000, 4.0000000000000000000000000, 4.0000000000000000000000000, 4.0000000000000000000000000, 4.0000000000000000000000000, 4.0000000000000000000000000, 4.0000000000000000000000000, 4.0000000000000000000000000, 4.0000000000000000000000000, 4.0000000000000000000000000, 4.0000000000000000000000000, 4.0000000000000000000000000, 4.0000000000000000000000000, 4.0000000000000000000000000, 4.0000000000000000000000000
27.0000000000000000000000000, 0.0000000000000000000000000, 4206.6665039062500000000000000, 4195.3842773437500000000000000, 4194.8715820312500000000000000, 4202.5639648437500000000000000, 4193.8461914062500000000000000, 4180.0000000000000000000000000, 4187.6923828125000000000000000, 4185.6411132812500000000000000, 4198.9741210937500000000000000, 4196.9228515625000000000000000, 4195.3842773437500000000000000, 4211.7949218750000000000000000, 4203.5898437500000000000000000, 4206.1538085937500000000000000, 0.0000000000000000000000000, 2061.0000000000000000000000000, 2037.0000000000000000000000000, 0.0000000000000000000000000, 0.0000000000000000000000000, 0.0000000000000000000000000, 399.0000000000000000000000000, 802.0512695312500000000000000, 4.0000000000000000000000000, 4.0000000000000000000000000, 4.0000000000000000000000000, 4.0000000000000000000000000, 4.0000000000000000000000000, 4.0000000000000000000000000, 4.0000000000000000000000000, 4.0000000000000000000000000, 4.0000000000000000000000000, 4.0000000000000000000000000, 4.0000000000000000000000000, 4.0000000000000000000000000, 4.0000000000000000000000000, 4.0000000000000000000000000, 4.0000000000000000000000000, 4.0000000000000000000000000
28.0000000000000000000000000, 0.0000000000000000000000000, 4202.5639648437500000000000000, 4188.2050781250000000000000000, 4199.4873046875000000000000000, 4206.6665039062500000000000000, 4185.1279296875000000000000000, 4175.3842773437500000000000000, 4190.2563476562500000000000000, 4185.1279296875000000000000000, 4205.1279296875000000000000000, 4192.8203125000000000000000000, 4191.7949218750000000000000000, 4209.2304687500000000000000000, 4197.4360351562500000000000000, 4202.0512695312500000000000000, 0.0000000000000000000000000, 2057.0000000000000000000000000, 2036.0000000000000000000000000, 0.0000000000000000000000000, 0.0000000000000000000000000, 0.0000000000000000000000000, 399.0000000000000000000000000, 809.7435913085937500000000000, 4.0000000000000000000000000, 4.0000000000000000000000000, 4.0000000000000000000000000, 4.0000000000000000000000000, 4.0000000000000000000000000, 4.0000000000000000000000000, 4.0000000000000000000000000, 4.0000000000000000000000000, 4.0000000000000000000000000, 4.0000000000000000000000000, 4.0000000000000000000000000, 4.0000000000000000000000000, 4.0000000000000000000000000, 4.0000000000000000000000000, 4.0000000000000000000000000, 4.0000000000000000000000000
29.0000000000000000000000000, 0.0000000000000000000000000, 4191.7949218750000000000000000, 4176.4101562500000000000000000, 4194.8715820312500000000000000, 4213.8461914062500000000000000, 4176.9228515625000000000000000, 4178.9741210937500000000000000, 4195.8974609375000000000000000, 4184.6152343750000000000000000, 4207.6923828125000000000000000, 4194.8715820312500000000000000, 4190.2563476562500000000000000, 4208.7177734375000000000000000, 4195.3842773437500000000000000, 4200.0000000000000000000000000, 0.0000000000000000000000000, 2056.0000000000000000000000000, 2035.0000000000000000000000000, 0.0000000000000000000000000, 0.0000000000000000000000000, 0.0000000000000000000000000, 399.0000000000000000000000000, 817.9486694335937500000000000, 4.0000000000000000000000000, 4.0000000000000000000000000, 4.0000000000000000000000000, 4.0000000000000000000000000, 4.0000000000000000000000000, 4.0000000000000000000000000, 4.0000000000000000000000000, 4.0000000000000000000000000, 4.0000000000000000000000000, 4.0000000000000000000000000, 4.0000000000000000000000000, 4.0000000000000000000000000, 4.0000000000000000000000000, 4.0000000000000000000000000, 4.0000000000000000000000000, 4.0000000000000000000000000
30.0000000000000000000000000, 0.0000000000000000000000000, 4191.7949218750000000000000000, 4180.0000000000000000000000000, 4197.9487304687500000000000000, 4211.7949218750000000000000000, 4189.7436523437500000000000000, 4188.7177734375000000000000000, 4198.9741210937500000000000000, 4190.7690429687500000000000000, 4195.3842773437500000000000000, 4203.5898437500000000000000000, 4196.9228515625000000000000000, 4203.0766601562500000000000000, 4203.0766601562500000000000000, 4207.1791992187500000000000000, 0.0000000000000000000000000, 2051.0000000000000000000000000, 2036.0000000000000000000000000, 0.0000000000000000000000000, 0.0000000000000000000000000, 0.0000000000000000000000000, 399.0000000000000000000000000, 825.6409912109375000000000000, 4.0000000000000000000000000, 4.0000000000000000000000000, 4.0000000000000000000000000, 4.0000000000000000000000000, 4.0000000000000000000000000, 4.0000000000000000000000000, 4.0000000000000000000000000, 4.0000000000000000000000000, 4.0000000000000000000000000, 4.0000000000000000000000000, 4.0000000000000000000000000, 4.0000000000000000000000000, 4.0000000000000000000000000, 4.0000000000000000000000000, 4.0000000000000000000000000, 4.0000000000000000000000000
31.0000000000000000000000000, 0.0000000000000000000000000, 4200.0000000000000000000000000, 4187.1791992187500000000000000, 4204.6152343750000000000000000, 4207.1791992187500000000000000, 4204.1025390625000000000000000, 4184.6152343750000000000000000, 4189.7436523437500000000000000, 4196.4101562500000000000000000, 4182.0512695312500000000000000, 4208.7177734375000000000000000, 4206.1538085937500000000000000, 4195.3842773437500000000000000, 4208.2050781250000000000000000, 4212.8203125000000000000000000, 0.0000000000000000000000000, 2044.0000000000000000000000000, 2035.0000000000000000000000000, 0.0000000000000000000000000, 0.0000000000000000000000000, 0.0000000000000000000000000, 399.0000000000000000000000000, 833.8461303710937500000000000, 4.0000000000000000000000000, 4.0000000000000000000000000, 4.0000000000000000000000000, 4.0000000000000000000000000, 4.0000000000000000000000000, 4.0000000000000000000000000, 4.0000000000000000000000000, 4.0000000000000000000000000, 4.0000000000000000000000000, 4.0000000000000000000000000, 4.0000000000000000000000000, 4.0000000000000000000000000, 4.0000000000000000000000000, 4.0000000000000000000000000, 4.0000000000000000000000000, 4.0000000000000000000000000
32.0000000000000000000000000, 0.0000000000000000000000000, 4197.9487304687500000000000000, 4185.1279296875000000000000000, 4200.5126953125000000000000000, 4209.7436523437500000000000000, 4203.0766601562500000000000000, 4182.0512695312500000000000000, 4186.1538085937500000000000000, 4193.8461914062500000000000000, 4182.5639648437500000000000000, 4205.1279296875000000000000000, 4198.9741210937500000000000000, 4200.5126953125000000000000000, 4200.0000000000000000000000000, 4204.1025390625000000000000000, 0.0000000000000000000000000, 2041.0000000000000000000000000, 2034.0000000000000000000000000, 0.0000000000000000000000000, 0.0000000000000000000000000, 0.0000000000000000000000000, 399.0000000000000000000000000, 841.5384521484375000000000000, 4.0000000000000000000000000, 4.0000000000000000000000000, 4.0000000000000000000000000, 4.0000000000000000000000000, 4.0000000000000000000000000, 4.0000000000000000000000000, 4.0000000000000000000000000, 4.0000000000000000000000000, 4.0000000000000000000000000, 4.0000000000000000000000000, 4.0000000000000000000000000, 4.0000000000000000000000000, 4.0000000000000000000000000, 4.0000000000000000000000000, 4.0000000000000000000000000, 4.0000000000000000000000000
33.0000000000000000000000000, 0.0000000000000000000000000, 4193.3330078125000000000000000, 4184.6152343750000000000000000, 4201.5385742187500000000000000, 4207.1791992187500000000000000, 4199.4873046875000000000000000, 4189.2304687500000000000000000, 4196.4101562500000000000000000, 4187.6923828125000000000000000, 4193.3330078125000000000000000, 4201.5385742187500000000000000, 4184.6152343750000000000000000, 4205.1279296875000000000000000, 4192.3076171875000000000000000, 4196.9228515625000000000000000, 0.0000000000000000000000000, 2041.0000000000000000000000000, 2032.0000000000000000000000000, 0.0000000000000000000000000, 0.0000000000000000000000000, 0.0000000000000000000000000, 399.0000000000000000000000000, 849.7435913085937500000000000, 4.0000000000000000000000000, 4.0000000000000000000000000, 4.0000000000000000000000000, 4.0000000000000000000000000, 4.0000000000000000000000000, 4.0000000000000000000000000, 4.0000000000000000000000000, 4.0000000000000000000000000, 4.0000000000000000000000000, 4.0000000000000000000000000, 4.0000000000000000000000000, 4.0000000000000000000000000, 4.0000000000000000000000000, 4.0000000000000000000000000, 4.0000000000000000000000000, 4.0000000000000000000000000
34.0000000000000000000000000, 0.0000000000000000000000000, 4188.7177734375000000000000000, 4188.2050781250000000000000000, 4197.4360351562500000000000000, 4202.5639648437500000000000000, 4197.9487304687500000000000000, 4186.1538085937500000000000000, 4194.8715820312500000000000000, 4184.1025390625000000000000000, 4197.4360351562500000000000000, 4204.1025390625000000000000000, 4185.6411132812500000000000000, 4208.2050781250000000000000000, 4194.8715820312500000000000000, 4194.8715820312500000000000000, 0.0000000000000000000000000, 2037.0000000000000000000000000, 2032.0000000000000000000000000, 0.0000000000000000000000000, 0.0000000000000000000000000, 0.0000000000000000000000000, 399.0000000000000000000000000, 857.9486694335937500000000000, 4.0000000000000000000000000, 4.0000000000000000000000000, 4.0000000000000000000000000, 4.0000000000000000000000000, 4.0000000000000000000000000, 4.0000000000000000000000000, 4.0000000000000000000000000, 4.0000000000000000000000000, 4.0000000000000000000000000, 4.0000000000000000000000000, 4.0000000000000000000000000, 4.0000000000000000000000000, 4.0000000000000000000000000, 4.0000000000000000000000000, 4.0000000000000000000000000, 4.0000000000000000000000000
35.0000000000000000000000000, 0.0000000000000000000000000, 4184.1025390625000000000000000, 4184.6152343750000000000000000, 4194.3588867187500000000000000, 4207.6923828125000000000000000, 4196.9228515625000000000000000, 4181.5385742187500000000000000, 4189.2304687500000000000000000, 4186.6665039062500000000000000, 4192.3076171875000000000000000, 4207.6923828125000000000000000, 4193.3330078125000000000000000, 4209.7436523437500000000000000, 4197.9487304687500000000000000, 4191.2817382812500000000000000, 0.0000000000000000000000000, 2034.0000000000000000000000000, 2031.0000000000000000000000000, 0.0000000000000000000000000, 0.0000000000000000000000000, 0.0000000000000000000000000, 399.0000000000000000000000000, 865.6409912109375000000000000, 4.0000000000000000000000000, 4.0000000000000000000000000, 4.0000000000000000000000000, 4.0000000000000000000000000, 4.0000000000000000000000000, 4.0000000000000000000000000, 4.0000000000000000000000000, 4.0000000000000000000000000, 4.0000000000000000000000000, 4.0000000000000000000000000, 4.0000000000000000000000000, 4.0000000000000000000000000, 4.0000000000000000000000000, 4.0000000000000000000000000, 4.0000000000000000000000000, 4.0000000000000000000000000
36.0000000000000000000000000, 0.0000000000000000000000000, 4188.7177734375000000000000000, 4185.6411132812500000000000000, 4201.0253906250000000000000000, 4209.2304687500000000000000000, 4197.4360351562500000000000000, 4181.0253906250000000000000000, 4187.6923828125000000000000000, 4192.3076171875000000000000000, 4191.2817382812500000000000000, 4209.7436523437500000000000000, 4193.8461914062500000000000000, 4207.6923828125000000000000000, 4201.5385742187500000000000000, 4197.4360351562500000000000000, 0.0000000000000000000000000, 2031.0000000000000000000000000, 2028.0000000000000000000000000, 0.0000000000000000000000000, 0.0000000000000000000000000, 0.0000000000000000000000000, 399.0000000000000000000000000, 873.8461303710937500000000000, 4.0000000000000000000000000, 4.0000000000000000000000000, 4.0000000000000000000000000, 4.0000000000000000000000000, 4.0000000000000000000000000, 4.0000000000000000000000000, 4.0000000000000000000000000, 4.0000000000000000000000000, 4.0000000000000000000000000, 4.0000000000000000000000000, 4.0000000000000000000000000, 4.0000000000000000000000000, 4.0000000000000000000000000, 4.0000000000000000000000000, 4.0000000000000000000000000, 4.0000000000000000000000000
37.0000000000000000000000000, 0.0000000000000000000000000, 4190.7690429687500000000000000, 4192.3076171875000000000000000, 4199.4873046875000000000000000, 4209.7436523437500000000000000, 4198.4614257812500000000000000, 4177.9487304687500000000000000, 4184.6152343750000000000000000, 4189.2304687500000000000000000, 4195.3842773437500000000000000, 4206.6665039062500000000000000, 4191.7949218750000000000000000, 4211.2817382812500000000000000, 4207.6923828125000000000000000, 4201.5385742187500000000000000, 0.0000000000000000000000000, 2030.0000000000000000000000000, 2028.0000000000000000000000000, 0.0000000000000000000000000, 0.0000000000000000000000000, 0.0000000000000000000000000, 399.0000000000000000000000000, 881.5384521484375000000000000, 4.0000000000000000000000000, 4.0000000000000000000000000, 4.0000000000000000000000000, 4.0000000000000000000000000, 4.0000000000000000000000000, 4.0000000000000000000000000, 4.0000000000000000000000000, 4.0000000000000000000000000, 4.0000000000000000000000000, 4.0000000000000000000000000, 4.0000000000000000000000000, 4.0000000000000000000000000, 4.0000000000000000000000000, 4.0000000000000000000000000, 4.0000000000000000000000000, 4.0000000000000000000000000
38.0000000000000000000000000, 0.0000000000000000000000000, 4190.7690429687500000000000000, 4190.2563476562500000000000000, 4199.4873046875000000000000000, 4210.2563476562500000000000000, 4192.8203125000000000000000000, 4180.5126953125000000000000000, 4185.1279296875000000000000000, 4178.9741210937500000000000000, 4195.3842773437500000000000000, 4200.0000000000000000000000000, 4198.4614257812500000000000000, 4211.7949218750000000000000000, 4208.7177734375000000000000000, 4200.5126953125000000000000000, 0.0000000000000000000000000, 2030.0000000000000000000000000, 2027.0000000000000000000000000, 0.0000000000000000000000000, 0.0000000000000000000000000, 0.0000000000000000000000000, 399.0000000000000000000000000, 889.7435913085937500000000000, 4.0000000000000000000000000, 4.0000000000000000000000000, 4.0000000000000000000000000, 4.0000000000000000000000000, 4.0000000000000000000000000, 4.0000000000000000000000000, 4.0000000000000000000000000, 4.0000000000000000000000000, 4.0000000000000000000000000, 4.0000000000000000000000000, 4.0000000000000000000000000, 4.0000000000000000000000000, 4.0000000000000000000000000, 4.0000000000000000000000000, 4.0000000000000000000000000, 4.0000000000000000000000000
39.0000000000000000000000000, 0.0000000000000000000000000, 4194.3588867187500000000000000, 4187.1791992187500000000000000, 4197.9487304687500000000000000, 4206.6665039062500000000000000, 4188.7177734375000000000000000, 4183.0766601562500000000000000, 4185.6411132812500000000000000, 4183.0766601562500000000000000, 4189.7436523437500000000000000, 4202.0512695312500000000000000, 4203.0766601562500000000000000, 4207.1791992187500000000000000, 4209.7436523437500000000000000, 4202.5639648437500000000000000, 0.0000000000000000000000000, 2027.0000000000000000000000000, 2031.0000000000000000000000000, 0.0000000000000000000000000, 0.0000000000000000000000000, 0.0000000000000000000000000, 399.0000000000000000000000000, 897.4358520507812500000000000, 4.0000000000000000000000000, 4.0000000000000000000000000, 4.0000000000000000000000000, 4.0000000000000000000000000, 4.0000000000000000000000000, 4.0000000000000000000000000, 4.0000000000000000000000000, 4.0000000000000000000000000, 4.0000000000000000000000000, 4.0000000000000000000000000, 4.0000000000000000000000000, 4.0000000000000000000000000, 4.0000000000000000000000000, 4.0000000000000000000000000, 4.0000000000000000000000000, 4.0000000000000000000000000
40.0000000000000000000000000, 0.0000000000000000000000000, 4196.4101562500000000000000000, 4191.2817382812500000000000000, 4198.9741210937500000000000000, 4200.5126953125000000000000000, 4194.3588867187500000000000000, 4181.5385742187500000000000000, 4185.6411132812500000000000000, 4192.3076171875000000000000000, 4188.2050781250000000000000000, 4206.6665039062500000000000000, 4200.5126953125000000000000000, 4205.6411132812500000000000000, 4213.3330078125000000000000000, 4207.1791992187500000000000000, 0.0000000000000000000000000, 2029.0000000000000000000000000, 2030.0000000000000000000000000, 0.0000000000000000000000000, 0.0000000000000000000000000, 0.0000000000000000000000000, 399.0000000000000000000000000, 905.6409912109375000000000000, 4.0000000000000000000000000, 4.0000000000000000000000000, 4.0000000000000000000000000, 4.0000000000000000000000000, 4.0000000000000000000000000, 4.0000000000000000000000000, 4.0000000000000000000000000, 4.0000000000000000000000000, 4.0000000000000000000000000, 4.0000000000000000000000000, 4.0000000000000000000000000, 4.0000000000000000000000000, 4.0000000000000000000000000, 4.0000000000000000000000000, 4.0000000000000000000000000, 4.0000000000000000000000000
41.0000000000000000000000000, 0.0000000000000000000000000, 4201.5385742187500000000000000, 4197.4360351562500000000000000, 4208.7177734375000000000000000, 4195.8974609375000000000000000, 4194.8715820312500000000000000, 4184.6152343750000000000000000, 4182.5639648437500000000000000, 4190.7690429687500000000000000, 4188.7177734375000000000000000, 4207.6923828125000000000000000, 4203.0766601562500000000000000, 4202.0512695312500000000000000, 4217.9487304687500000000000000, 4213.3330078125000000000000000, 0.0000000000000000000000000, 2027.0000000000000000000000000, 2035.0000000000000000000000000, 0.0000000000000000000000000, 0.0000000000000000000000000, 0.0000000000000000000000000, 399.0000000000000000000000000, 913.3333129882812500000000000, 4.0000000000000000000000000, 4.0000000000000000000000000, 4.0000000000000000000000000, 4.0000000000000000000000000, 4.0000000000000000000000000, 4.0000000000000000000000000, 4.0000000000000000000000000, 4.0000000000000000000000000, 4.0000000000000000000000000, 4.0000000000000000000000000, 4.0000000000000000000000000, 4.0000000000000000000000000, 4.0000000000000000000000000, 4.0000000000000000000000000, 4.0000000000000000000000000, 4.0000000000000000000000000
42.0000000000000000000000000, 0.0000000000000000000000000, 4201.0253906250000000000000000, 4198.9741210937500000000000000, 4201.5385742187500000000000000, 4201.0253906250000000000000000, 4188.2050781250000000000000000, 4181.0253906250000000000000000, 4177.9487304687500000000000000, 4184.1025390625000000000000000, 4194.8715820312500000000000000, 4202.5639648437500000000000000, 4202.0512695312500000000000000, 4206.1538085937500000000000000, 4213.8461914062500000000000000, 4210.2563476562500000000000000, 0.0000000000000000000000000, 2029.0000000000000000000000000, 2037.0000000000000000000000000, 0.0000000000000000000000000, 0.0000000000000000000000000, 0.0000000000000000000000000, 399.0000000000000000000000000, 921.5384521484375000000000000, 4.0000000000000000000000000, 4.0000000000000000000000000, 4.0000000000000000000000000, 4.0000000000000000000000000, 4.0000000000000000000000000, 4.0000000000000000000000000, 4.0000000000000000000000000, 4.0000000000000000000000000, 4.0000000000000000000000000, 4.0000000000000000000000000, 4.0000000000000000000000000, 4.0000000000000000000000000, 4.0000000000000000000000000, 4.0000000000000000000000000, 4.0000000000000000000000000, 4.0000000000000000000000000
43.0000000000000000000000000, 0.0000000000000000000000000, 4195.8974609375000000000000000, 4194.8715820312500000000000000, 4193.8461914062500000000000000, 4209.2304687500000000000000000, 4189.2304687500000000000000000, 4172.3076171875000000000000000, 4177.4360351562500000000000000, 4182.5639648437500000000000000, 4202.0512695312500000000000000, 4193.8461914062500000000000000, 4192.3076171875000000000000000, 4211.2817382812500000000000000, 4200.0000000000000000000000000, 4201.0253906250000000000000000, 0.0000000000000000000000000, 2033.0000000000000000000000000, 2039.0000000000000000000000000, 0.0000000000000000000000000, 0.0000000000000000000000000, 0.0000000000000000000000000, 399.0000000000000000000000000, 929.2307739257812500000000000, 4.0000000000000000000000000, 4.0000000000000000000000000, 4.0000000000000000000000000, 4.0000000000000000000000000, 4.0000000000000000000000000, 4.0000000000000000000000000, 4.0000000000000000000000000, 4.0000000000000000000000000, 4.0000000000000000000000000, 4.0000000000000000000000000, 4.0000000000000000000000000, 4.0000000000000000000000000, 4.0000000000000000000000000, 4.0000000000000000000000000, 4.0000000000000000000000000, 4.0000000000000000000000000
44.0000000000000000000000000, 0.0000000000000000000000000, 4195.8974609375000000000000000, 4194.3588867187500000000000000, 4191.7949218750000000000000000, 4210.7690429687500000000000000, 4192.8203125000000000000000000, 4175.3842773437500000000000000, 4177.4360351562500000000000000, 4186.6665039062500000000000000, 4198.4614257812500000000000000, 4194.8715820312500000000000000, 4191.7949218750000000000000000, 4213.8461914062500000000000000, 4195.8974609375000000000000000, 4197.4360351562500000000000000, 0.0000000000000000000000000, 2035.0000000000000000000000000, 2041.0000000000000000000000000, 0.0000000000000000000000000, 0.0000000000000000000000000, 0.0000000000000000000000000, 399.0000000000000000000000000, 937.4358520507812500000000000, 4.0000000000000000000000000, 4.0000000000000000000000000, 4.0000000000000000000000000, 4.0000000000000000000000000, 4.0000000000000000000000000, 4.0000000000000000000000000, 4.0000000000000000000000000, 4.0000000000000000000000000, 4.0000000000000000000000000, 4.0000000000000000000000000, 4.0000000000000000000000000, 4.0000000000000000000000000, 4.0000000000000000000000000, 4.0000000000000000000000000, 4.0000000000000000000000000, 4.0000000000000000000000000
45.0000000000000000000000000, 0.0000000000000000000000000, 4195.3842773437500000000000000, 4195.3842773437500000000000000, 4189.7436523437500000000000000, 4206.6665039062500000000000000, 4185.6411132812500000000000000, 4181.5385742187500000000000000, 4180.5126953125000000000000000, 4183.5898437500000000000000000, 4199.4873046875000000000000000, 4196.4101562500000000000000000, 4194.8715820312500000000000000, 4218.4614257812500000000000000, 4197.9487304687500000000000000, 4194.8715820312500000000000000, 0.0000000000000000000000000, 2035.0000000000000000000000000, 2044.0000000000000000000000000, 0.0000000000000000000000000, 0.0000000000000000000000000, 0.0000000000000000000000000, 399.0000000000000000000000000, 945.6409912109375000000000000, 4.0000000000000000000000000, 4.0000000000000000000000000, 4.0000000000000000000000000, 4.0000000000000000000000000, 4.0000000000000000000000000, 4.0000000000000000000000000, 4.0000000000000000000000000, 4.0000000000000000000000000, 4.0000000000000000000000000, 4.0000000000000000000000000, 4.0000000000000000000000000, 4.0000000000000000000000000, 4.0000000000000000000000000, 4.0000000000000000000000000, 4.0000000000000000000000000, 4.0000000000000000000000000
46.0000000000000000000000000, 0.0000000000000000000000000, 4194.8715820312500000000000000, 4194.3588867187500000000000000, 4192.3076171875000000000000000, 4202.5639648437500000000000000, 4186.6665039062500000000000000, 4180.5126953125000000000000000, 4186.1538085937500000000000000, 4180.5126953125000000000000000, 4203.0766601562500000000000000, 4188.7177734375000000000000000, 4192.3076171875000000000000000, 4217.9487304687500000000000000, 4195.3842773437500000000000000, 4197.9487304687500000000000000, 0.0000000000000000000000000, 2039.0000000000000000000000000, 2047.0000000000000000000000000, 0.0000000000000000000000000, 0.0000000000000000000000000, 0.0000000000000000000000000, 399.0000000000000000000000000, 953.3333129882812500000000000, 4.0000000000000000000000000, 4.0000000000000000000000000, 4.0000000000000000000000000, 4.0000000000000000000000000, 4.0000000000000000000000000, 4.0000000000000000000000000, 4.0000000000000000000000000, 4.0000000000000000000000000, 4.0000000000000000000000000, 4.0000000000000000000000000, 4.0000000000000000000000000, 4.0000000000000000000000000, 4.0000000000000000000000000, 4.0000000000000000000000000, 4.0000000000000000000000000, 4.0000000000000000000000000
47.0000000000000000000000000, 0.0000000000000000000000000, 4188.2050781250000000000000000, 4189.2304687500000000000000000, 4187.6923828125000000000000000, 4209.2304687500000000000000000, 4189.7436523437500000000000000, 4174.8715820312500000000000000, 4183.0766601562500000000000000, 4184.6152343750000000000000000, 4200.5126953125000000000000000, 4185.1279296875000000000000000, 4189.7436523437500000000000000, 4222.0512695312500000000000000, 4188.7177734375000000000000000, 4195.8974609375000000000000000, 0.0000000000000000000000000, 2040.0000000000000000000000000, 2052.0000000000000000000000000, 0.0000000000000000000000000, 0.0000000000000000000000000, 0.0000000000000000000000000, 399.0000000000000000000000000, 961.5384521484375000000000000, 4.0000000000000000000000000, 4.0000000000000000000000000, 4.0000000000000000000000000, 4.0000000000000000000000000, 4.0000000000000000000000000, 4.0000000000000000000000000, 4.0000000000000000000000000, 4.0000000000000000000000000, 4.0000000000000000000000000, 4.0000000000000000000000000, 4.0000000000000000000000000, 4.0000000000000000000000000, 4.0000000000000000000000000, 4.0000000000000000000000000, 4.0000000000000000000000000, 4.0000000000000000000000000
48.0000000000000000000000000, 0.0000000000000000000000000, 4181.0253906250000000000000000, 4182.5639648437500000000000000, 4186.1538085937500000000000000, 4216.4101562500000000000000000, 4180.5126953125000000000000000, 4177.4360351562500000000000000, 4180.0000000000000000000000000, 4183.5898437500000000000000000, 4203.5898437500000000000000000, 4182.0512695312500000000000000, 4184.6152343750000000000000000, 4232.3076171875000000000000000, 4183.5898437500000000000000000, 4184.6152343750000000000000000, 0.0000000000000000000000000, 2042.0000000000000000000000000, 2053.0000000000000000000000000, 0.0000000000000000000000000, 0.0000000000000000000000000, 0.0000000000000000000000000, 399.0000000000000000000000000, 969.2307739257812500000000000, 4.0000000000000000000000000, 4.0000000000000000000000000, 4.0000000000000000000000000, 4.0000000000000000000000000, 4.0000000000000000000000000, 4.0000000000000000000000000, 4.0000000000000000000000000, 4.0000000000000000000000000, 4.0000000000000000000000000, 4.0000000000000000000000000, 4.0000000000000000000000000, 4.0000000000000000000000000, 4.0000000000000000000000000, 4.0000000000000000000000000, 4.0000000000000000000000000, 4.0000000000000000000000000
49.0000000000000000000000000, 0.0000000000000000000000000, 4183.0766601562500000000000000, 4184.1025390625000000000000000, 4186.1538085937500000000000000, 4211.7949218750000000000000000, 4187.6923828125000000000000000, 4190.7690429687500000000000000, 4187.1791992187500000000000000, 4187.6923828125000000000000000, 4198.4614257812500000000000000, 4186.1538085937500000000000000, 4189.2304687500000000000000000, 4233.8461914062500000000000000, 4186.1538085937500000000000000, 4185.1279296875000000000000000, 0.0000000000000000000000000, 2043.0000000000000000000000000, 2055.0000000000000000000000000, 0.0000000000000000000000000, 0.0000000000000000000000000, 0.0000000000000000000000000, 399.0000000000000000000000000, 977.4358520507812500000000000, 4.0000000000000000000000000, 4.0000000000000000000000000, 4.0000000000000000000000000, 4.0000000000000000000000000, 4.0000000000000000000000000, 4.0000000000000000000000000, 4.0000000000000000000000000, 4.0000000000000000000000000, 4.0000000000000000000000000, 4.0000000000000000000000000, 4.0000000000000000000000000, 4.0000000000000000000000000, 4.0000000000000000000000000, 4.0000000000000000000000000, 4.0000000000000000000000000, 4.0000000000000000000000000
50.0000000000000000000000000, 0.0000000000000000000000000, 4186.6665039062500000000000000, 4191.2817382812500000000000000, 4181.5385742187500000000000000, 4206.1538085937500000000000000, 4204.1025390625000000000000000, 4196.9228515625000000000000000, 4196.9228515625000000000000000, 4201.5385742187500000000000000, 4184.6152343750000000000000000, 4203.5898437500000000000000000, 4205.1279296875000000000000000, 4228.7177734375000000000000000, 4192.3076171875000000000000000, 4191.2817382812500000000000000, 0.0000000000000000000000000, 2044.0000000000000000000000000, 2056.0000000000000000000000000, 0.0000000000000000000000000, 0.0000000000000000000000000, 0.0000000000000000000000000, 399.0000000000000000000000000, 985.1281738281250000000000000, 4.0000000000000000000000000, 4.0000000000000000000000000, 4.0000000000000000000000000, 4.0000000000000000000000000, 4.0000000000000000000000000, 4.0000000000000000000000000, 4.0000000000000000000000000, 4.0000000000000000000000000, 4.0000000000000000000000000, 4.0000000000000000000000000, 4.0000000000000000000000000, 4.0000000000000000000000000, 4.0000000000000000000000000, 4.0000000000000000000000000, 4.0000000000000000000000000, 4.0000000000000000000000000
51.0000000000000000000000000, 0.0000000000000000000000000, 4188.7177734375000000000000000, 4193.3330078125000000000000000, 4183.5898437500000000000000000, 4206.1538085937500000000000000, 4202.0512695312500000000000000, 4190.2563476562500000000000000, 4190.7690429687500000000000000, 4199.4873046875000000000000000, 4187.1791992187500000000000000, 4205.1279296875000000000000000, 4206.6665039062500000000000000, 4226.1538085937500000000000000, 4194.8715820312500000000000000, 4193.3330078125000000000000000, 0.0000000000000000000000000, 2045.0000000000000000000000000, 2055.0000000000000000000000000, 0.0000000000000000000000000, 0.0000000000000000000000000, 0.0000000000000000000000000, 399.0000000000000000000000000, 993.3333129882812500000000000, 4.0000000000000000000000000, 4.0000000000000000000000000, 4.0000000000000000000000000, 4.0000000000000000000000000, 4.0000000000000000000000000, 4.0000000000000000000000000, 4.0000000000000000000000000, 4.0000000000000000000000000, 4.0000000000000000000000000, 4.0000000000000000000000000, 4.0000000000000000000000000, 4.0000000000000000000000000, 4.0000000000000000000000000, 4.0000000000000000000000000, 4.0000000000000000000000000, 4.0000000000000000000000000
52.0000000000000000000000000, 0.0000000000000000000000000, 4187.1791992187500000000000000, 4189.7436523437500000000000000, 4181.5385742187500000000000000, 4206.6665039062500000000000000, 4189.2304687500000000000000000, 4182.0512695312500000000000000, 4175.8974609375000000000000000, 4180.5126953125000000000000000, 4200.5126953125000000000000000, 4188.7177734375000000000000000, 4193.3330078125000000000000000, 4234.3588867187500000000000000, 4186.6665039062500000000000000, 4187.1791992187500000000000000, 0.0000000000000000000000000, 2048.0000000000000000000000000, 2056.0000000000000000000000000, 0.0000000000000000000000000, 0.0000000000000000000000000, 0.0000000000000000000000000, 400.0000000000000000000000000, 1.0256409645080566406250000, 4.0000000000000000000000000, 4.0000000000000000000000000, 4.0000000000000000000000000, 4.0000000000000000000000000, 4.0000000000000000000000000, 4.0000000000000000000000000, 4.0000000000000000000000000, 4.0000000000000000000000000, 4.0000000000000000000000000, 4.0000000000000000000000000, 4.0000000000000000000000000, 4.0000000000000000000000000, 4.0000000000000000000000000, 4.0000000000000000000000000, 4.0000000000000000000000000, 4.0000000000000000000000000
53.0000000000000000000000000, 0.0000000000000000000000000, 4186.6665039062500000000000000, 4184.6152343750000000000000000, 4180.5126953125000000000000000, 4210.7690429687500000000000000, 4182.5639648437500000000000000, 4176.4101562500000000000000000, 4171.7949218750000000000000000, 4168.2050781250000000000000000, 4208.2050781250000000000000000, 4183.0766601562500000000000000, 4186.1538085937500000000000000, 4238.4614257812500000000000000, 4176.9228515625000000000000000, 4179.4873046875000000000000000, 0.0000000000000000000000000, 2048.0000000000000000000000000, 2055.0000000000000000000000000, 0.0000000000000000000000000, 0.0000000000000000000000000, 0.0000000000000000000000000, 400.0000000000000000000000000, 9.2307691574096679687500000, 4.0000000000000000000000000, 4.0000000000000000000000000, 4.0000000000000000000000000, 4.0000000000000000000000000, 4.0000000000000000000000000, 4.0000000000000000000000000, 4.0000000000000000000000000, 4.0000000000000000000000000, 4.0000000000000000000000000, 4.0000000000000000000000000, 4.0000000000000000000000000, 4.0000000000000000000000000, 4.0000000000000000000000000, 4.0000000000000000000000000, 4.0000000000000000000000000, 4.0000000000000000000000000
54.0000000000000000000000000, 0.0000000000000000000000000, 4190.2563476562500000000000000, 4185.6411132812500000000000000, 4182.5639648437500000000000000, 4215.8974609375000000000000000, 4185.6411132812500000000000000, 4174.3588867187500000000000000, 4175.3842773437500000000000000, 4170.7690429687500000000000000, 4209.7436523437500000000000000, 4189.2304687500000000000000000, 4191.7949218750000000000000000, 4234.8715820312500000000000000, 4184.1025390625000000000000000, 4181.5385742187500000000000000, 0.0000000000000000000000000, 2048.0000000000000000000000000, 2051.0000000000000000000000000, 0.0000000000000000000000000, 0.0000000000000000000000000, 0.0000000000000000000000000, 400.0000000000000000000000000, 16.9230766296386718750000000, 4.0000000000000000000000000, 4.0000000000000000000000000, 4.0000000000000000000000000, 4.0000000000000000000000000, 4.0000000000000000000000000, 4.0000000000000000000000000, 4.0000000000000000000000000, 4.0000000000000000000000000, 4.0000000000000000000000000, 4.0000000000000000000000000, 4.0000000000000000000000000, 4.0000000000000000000000000, 4.0000000000000000000000000, 4.0000000000000000000000000, 4.0000000000000000000000000, 4.0000000000000000000000000
55.0000000000000000000000000, 0.0000000000000000000000000, 4192.3076171875000000000000000, 4193.3330078125000000000000000, 4184.1025390625000000000000000, 4209.7436523437500000000000000, 4191.7949218750000000000000000, 4184.1025390625000000000000000, 4184.6152343750000000000000000, 4177.4360351562500000000000000, 4207.6923828125000000000000000, 4186.6665039062500000000000000, 4198.4614257812500000000000000, 4231.7949218750000000000000000, 4193.8461914062500000000000000, 4187.1791992187500000000000000, 0.0000000000000000000000000, 2047.0000000000000000000000000, 2052.0000000000000000000000000, 0.0000000000000000000000000, 0.0000000000000000000000000, 0.0000000000000000000000000, 400.0000000000000000000000000, 25.1282043457031250000000000, 4.0000000000000000000000000, 4.0000000000000000000000000, 4.0000000000000000000000000, 4.0000000000000000000000000, 4.0000000000000000000000000, 4.0000000000000000000000000, 4.0000000000000000000000000, 4.0000000000000000000000000, 4.0000000000000000000000000, 4.0000000000000000000000000, 4.0000000000000000000000000, 4.0000000000000000000000000, 4.0000000000000000000000000, 4.0000000000000000000000000, 4.0000000000000000000000000, 4.0000000000000000000000000
56.0000000000000000000000000, 0.0000000000000000000000000, 4188.7177734375000000000000000, 4192.3076171875000000000000000, 4183.0766601562500000000000000, 4206.6665039062500000000000000, 4188.7177734375000000000000000, 4181.0253906250000000000000000, 4184.1025390625000000000000000, 4169.2304687500000000000000000, 4214.3588867187500000000000000, 4175.8974609375000000000000000, 4192.8203125000000000000000000, 4234.3588867187500000000000000, 4183.5898437500000000000000000, 4185.1279296875000000000000000, 0.0000000000000000000000000, 2048.0000000000000000000000000, 2050.0000000000000000000000000, 0.0000000000000000000000000, 0.0000000000000000000000000, 0.0000000000000000000000000, 400.0000000000000000000000000, 33.3333320617675781250000000, 4.0000000000000000000000000, 4.0000000000000000000000000, 4.0000000000000000000000000, 4.0000000000000000000000000, 4.0000000000000000000000000, 4.0000000000000000000000000, 4.0000000000000000000000000, 4.0000000000000000000000000, 4.0000000000000000000000000, 4.0000000000000000000000000, 4.0000000000000000000000000, 4.0000000000000000000000000, 4.0000000000000000000000000, 4.0000000000000000000000000, 4.0000000000000000000000000, 4.0000000000000000000000000
57.0000000000000000000000000, 0.0000000000000000000000000, 4176.9228515625000000000000000, 4182.5639648437500000000000000, 4167.6923828125000000000000000, 4215.8974609375000000000000000, 4181.5385742187500000000000000, 4164.6152343750000000000000000, 4171.7949218750000000000000000, 4156.9228515625000000000000000, 4222.5639648437500000000000000, 4170.7690429687500000000000000, 4182.0512695312500000000000000, 4248.2050781250000000000000000, 4173.3330078125000000000000000, 4175.8974609375000000000000000, 0.0000000000000000000000000, 2047.0000000000000000000000000, 2048.0000000000000000000000000, 0.0000000000000000000000000, 0.0000000000000000000000000, 0.0000000000000000000000000, 400.0000000000000000000000000, 41.0256385803222656250000000, 4.0000000000000000000000000, 4.0000000000000000000000000, 4.0000000000000000000000000, 4.0000000000000000000000000, 4.0000000000000000000000000, 4.0000000000000000000000000, 4.0000000000000000000000000, 4.0000000000000000000000000, 4.0000000000000000000000000, 4.0000000000000000000000000, 4.0000000000000000000000000, 4.0000000000000000000000000, 4.0000000000000000000000000, 4.0000000000000000000000000, 4.0000000000000000000000000, 4.0000000000000000000000000
58.0000000000000000000000000, 0.0000000000000000000000000, 4183.5898437500000000000000000, 4189.7436523437500000000000000, 4170.2563476562500000000000000, 4216.9228515625000000000000000, 4186.1538085937500000000000000, 4172.8203125000000000000000000, 4175.3842773437500000000000000, 4169.2304687500000000000000000, 4213.3330078125000000000000000, 4178.9741210937500000000000000, 4188.2050781250000000000000000, 4242.5639648437500000000000000, 4188.7177734375000000000000000, 4184.6152343750000000000000000, 0.0000000000000000000000000, 2046.0000000000000000000000000, 2048.0000000000000000000000000, 0.0000000000000000000000000, 0.0000000000000000000000000, 0.0000000000000000000000000, 400.0000000000000000000000000, 49.2307662963867187500000000, 4.0000000000000000000000000, 4.0000000000000000000000000, 4.0000000000000000000000000, 4.0000000000000000000000000, 4.0000000000000000000000000, 4.0000000000000000000000000, 4.0000000000000000000000000, 4.0000000000000000000000000, 4.0000000000000000000000000, 4.0000000000000000000000000, 4.0000000000000000000000000, 4.0000000000000000000000000, 4.0000000000000000000000000, 4.0000000000000000000000000, 4.0000000000000000000000000, 4.0000000000000000000000000
